time (s)	coil I (A)	last det (V)	int current (uC)
1225.188563	1.064561	0.394120	466.277527
1225.189471	1.553221	0.394120	1876.602539
1225.190368	1.548069	0.394120	3265.220215
1225.191352	1.507295	0.394120	4748.398437
1225.192288	1.466990	0.394120	6121.500977
1225.193230	1.428684	0.394120	7467.321289
1225.194127	1.391949	0.394120	8715.900391
1225.195110	1.355464	0.394120	10048.321289
1225.196053	1.321344	0.394120	11294.348633
1225.196954	1.288385	0.394120	12455.183594
1225.197913	1.151682	0.394120	13559.646484
1225.198854	0.184838	0.394120	13733.579102
1225.199779	0.085635	0.394120	13812.791016
1225.200686	0.085649	0.394120	13890.474609
1225.201632	0.085693	0.394120	13971.541016
1225.202587	0.085701	0.394120	14053.384766
1225.203495	0.085770	0.394120	14131.264648
1225.204422	0.085690	0.394120	14210.699219
1225.205381	0.085679	0.394120	14292.865234
1225.206305	0.085693	0.394120	14372.045898
1225.207196	0.085734	0.394120	14448.434570
1226.220392	1.086529	0.378712	490.024811
1226.221330	1.555019	0.378712	1948.633057
1226.222227	1.545930	0.378712	3335.332520
1226.223200	1.505695	0.378712	4800.373535
1226.224128	1.465880	0.378712	6160.710449
1226.225046	1.428428	0.378712	7472.006836
1226.225943	1.391770	0.378712	8720.424805
1226.226930	1.354885	0.378712	10057.696289
1226.227855	1.321113	0.378712	11279.726562
1226.228770	1.288209	0.378712	12458.437500
1226.229667	1.162463	0.378712	13501.166992
1226.230654	0.188943	0.378712	13687.653320
1226.231566	0.085580	0.378712	13765.702148
1226.232460	0.085701	0.378712	13842.318359
1226.233434	0.085679	0.378712	13925.769531
1226.234347	0.085745	0.378712	14004.054687
1226.235257	0.085774	0.378712	14082.109375
1226.236151	0.085770	0.378712	14158.788086
1226.237117	0.085690	0.378712	14241.564453
1226.238029	0.085701	0.378712	14319.723633
1226.238923	0.085701	0.378712	14396.339844
1227.277899	1.066597	0.392046	466.102783
1227.278840	1.551471	0.392046	1926.036987
1227.279789	1.543579	0.392046	3390.893555
1227.280746	1.503589	0.392046	4829.828125
1227.281659	1.464730	0.392046	6167.126953
1227.282596	1.425915	0.392046	7503.209961
1227.283562	1.388115	0.392046	8844.128906
1227.284497	1.352827	0.392046	10109.022461
1227.285393	1.319528	0.392046	11291.319336
1227.286394	1.284327	0.392046	12576.930664
1227.287316	1.105994	0.392046	13596.657227
1227.288218	0.166282	0.392046	13746.643555
1227.289105	0.085660	0.392046	13822.624023
1227.290067	0.085708	0.392046	13905.075195
1227.290992	0.085708	0.392046	13984.355469
1227.291894	0.085796	0.392046	14061.743164
1227.292852	0.085734	0.392046	14143.875977
1227.293773	0.085657	0.392046	14222.765625
1227.294687	0.085668	0.392046	14301.066406
1227.295575	0.085759	0.392046	14377.220703
1227.296555	0.085712	0.392046	14461.217773
1228.309727	1.069585	0.384642	475.965302
1228.310620	1.550775	0.384642	1860.807617
1228.311615	1.542825	0.384642	3395.918213
1228.312536	1.503776	0.384642	4780.895508
1228.313446	1.465042	0.384642	6114.083008
1228.314371	1.427062	0.384642	7434.115234
1228.315338	1.388892	0.384642	8777.173828
1228.316275	1.353464	0.384642	10045.370117
1228.317181	1.320476	0.384642	11241.721680
1228.318143	1.286210	0.384642	12479.055664
1228.319101	1.134928	0.384642	13566.316406
1228.320016	0.175638	0.384642	13727.025391
1228.320938	0.085635	0.384642	13805.980469
1228.321894	0.085752	0.384642	13887.958984
1228.322827	0.085778	0.384642	13967.989258
1228.323717	0.085682	0.384642	14044.246094
1228.324665	0.085653	0.384642	14125.445312
1228.325613	0.085686	0.384642	14206.675781
1228.326548	0.085704	0.384642	14286.809570
1228.327448	0.085671	0.384642	14363.914062
1228.328411	0.085708	0.384642	14446.451172
1229.368292	1.080934	0.391288	496.148621
1229.369187	1.551731	0.391288	1884.947754
1229.370171	1.544132	0.391288	3404.373779
1229.371089	1.505826	0.391288	4786.722656
1229.372015	1.466649	0.391288	6144.839844
1229.372918	1.429417	0.391288	7435.603027
1229.373898	1.390382	0.391288	8798.177734
1229.374821	1.355555	0.391288	10049.355469
1229.375720	1.322541	0.391288	11238.320312
1229.376653	1.289290	0.391288	12441.227539
1229.377611	1.170710	0.391288	13562.768555
1229.378515	0.203145	0.391288	13746.411133
1229.379405	0.085682	0.391288	13822.667969
1229.380362	0.085675	0.391288	13904.659180
1229.381281	0.085682	0.391288	13983.401367
1229.382198	0.085701	0.391288	14061.989258
1229.383099	0.085734	0.391288	14139.235352
1229.384081	0.085642	0.391288	14223.335937
1229.384994	0.085649	0.391288	14301.534180
1229.385926	0.085737	0.391288	14381.441406
1229.386812	0.085653	0.391288	14457.330078
1230.398798	1.077579	0.384851	473.057343
1230.399780	1.556854	0.384851	2001.888184
1230.400710	1.543594	0.384851	3437.430420
1230.401622	1.505738	0.384851	4810.664062
1230.402575	1.465371	0.384851	6207.162598
1230.403508	1.426849	0.384851	7538.413086
1230.404430	1.390225	0.384851	8820.200195
1230.405328	1.355753	0.384851	10037.666016
1230.406327	1.319689	0.384851	11356.035156
1230.407249	1.286503	0.384851	12542.190430
1230.408155	1.157468	0.384851	13590.856445
1230.409107	0.191071	0.384851	13772.755859
1230.410032	0.085704	0.384851	13852.032227
1230.410934	0.085734	0.384851	13929.364258
1230.411820	0.085752	0.384851	14005.340820
1230.412800	0.085778	0.384851	14089.403320
1230.413724	0.085778	0.384851	14168.662109
1230.414633	0.085752	0.384851	14246.610352
1230.415519	0.085708	0.384851	14322.547852
1230.416515	0.085792	0.384851	14407.997070
1230.417441	0.085763	0.384851	14487.413086
1231.458564	1.091847	0.395619	522.994629
1231.459475	1.555598	0.395619	1940.144531
1231.460378	1.545612	0.395619	3335.831543
1231.461308	1.507053	0.395619	4737.391113
1231.462273	1.465869	0.395619	6151.955078
1231.463207	1.427432	0.395619	7485.176270
1231.464112	1.391342	0.395619	8744.339844
1231.465071	1.355211	0.395619	10043.987305
1231.466010	1.320432	0.395619	11283.873047
1231.466948	1.287004	0.395619	12491.083008
1231.467844	1.160614	0.395619	13530.993164
1231.468815	0.184464	0.395619	13710.107422
1231.469766	0.085543	0.395619	13791.458984
1231.470664	0.085660	0.395619	13868.381836
1231.471600	0.085649	0.395619	13948.549805
1231.472537	0.085693	0.395619	14028.844727
1231.473467	0.085671	0.395619	14108.519531
1231.474372	0.085664	0.395619	14186.045898
1231.475325	0.085690	0.395619	14267.708008
1231.476278	0.085638	0.395619	14349.321289
1231.477186	0.085638	0.395619	14427.081055
1232.487637	1.067373	0.387752	476.048370
1232.488531	1.551354	0.387752	1862.958496
1232.489423	1.546392	0.387752	3242.339844
1232.490436	1.505544	0.387752	4767.456055
1232.491351	1.466437	0.387752	6109.245605
1232.492256	1.429109	0.387752	7402.589355
1232.493234	1.391243	0.387752	8763.224609
1232.494161	1.355240	0.387752	10019.532227
1232.495098	1.321128	0.387752	11257.429687
1232.495990	1.288568	0.387752	12406.832031
1232.496963	1.166473	0.387752	13541.810547
1232.497873	0.201101	0.387752	13724.812500
1232.498766	0.085613	0.387752	13801.264648
1232.499712	0.085649	0.387752	13882.289062
1232.500666	0.085690	0.387752	13964.037109
1232.501582	0.085719	0.387752	14042.555664
1232.502475	0.085730	0.387752	14119.112305
1232.503476	0.085704	0.387752	14204.902344
1232.504388	0.085701	0.387752	14283.061523
1232.505317	0.085701	0.387752	14362.677734
1232.506207	0.085807	0.387752	14439.045898
1233.548364	1.072020	0.387389	470.616852
1233.549363	1.556016	0.387389	2025.076416
1233.550299	1.540631	0.387389	3467.106934
1233.551218	1.502040	0.387389	4847.481445
1233.552173	1.462584	0.387389	6244.249023
1233.553095	1.424183	0.387389	7557.345703
1233.554000	1.388167	0.387389	8813.636719
1233.554896	1.354058	0.387389	10026.872070
1233.555868	1.319165	0.387389	11309.100586
1233.556780	1.285950	0.387389	12481.886719
1233.557694	1.168726	0.387389	13550.101562
1233.558616	0.200841	0.387389	13735.277344
1233.559579	0.085642	0.387389	13817.750977
1233.560505	0.085671	0.387389	13897.083008
1233.561416	0.085649	0.387389	13975.109375
1233.562365	0.085715	0.387389	14056.453125
1233.563290	0.085719	0.387389	14135.743164
1233.564198	0.085781	0.387389	14213.632812
1233.565083	0.085712	0.387389	14289.487305
1233.566060	0.085745	0.387389	14373.259766
1233.566983	0.085671	0.387389	14452.333984
1234.575943	1.063949	0.380231	460.689911
1234.576923	1.552141	0.380231	1981.788330
1234.577841	1.541726	0.380231	3397.092773
1234.578786	1.502922	0.380231	4817.354492
1234.579681	1.464207	0.380231	6127.819336
1234.580667	1.424692	0.380231	7532.565918
1234.581611	1.387130	0.380231	8842.016602
1234.582512	1.353160	0.380231	10061.213867
1234.583465	1.319370	0.380231	11318.573242
1234.584400	1.285181	0.380231	12520.216797
1234.585337	1.130878	0.380231	13579.849609
1234.586228	0.180714	0.380231	13740.866211
1234.587194	0.085664	0.380231	13823.618164
1234.588128	0.085664	0.380231	13903.627930
1234.589055	0.085664	0.380231	13983.038086
1234.589945	0.085712	0.380231	14059.321289
1234.590910	0.085690	0.380231	14142.011719
1234.591856	0.085649	0.380231	14223.036133
1234.592763	0.085723	0.380231	14300.786133
1234.593687	0.085657	0.380231	14379.932617
1234.594640	0.085664	0.380231	14461.570312
1235.638663	1.104558	0.387264	551.174500
1235.639604	1.554514	0.387264	2013.972412
1235.640522	1.540697	0.387264	3428.332520
1235.641422	1.503768	0.387264	4781.724121
1235.642374	1.464148	0.387264	6175.592773
1235.643306	1.425344	0.387264	7504.013672
1235.644219	1.389104	0.387264	8772.265625
1235.645115	1.354984	0.387264	9986.331055
1235.646114	1.318982	0.387264	11303.994141
1235.647039	1.285576	0.387264	12493.152344
1235.647945	1.163119	0.387264	13546.937500
1235.648857	0.197234	0.387264	13726.814453
1235.649824	0.085609	0.387264	13809.598633
1235.650742	0.085671	0.387264	13888.245117
1235.651638	0.085752	0.387264	13965.079102
1235.652595	0.085778	0.387264	14047.167969
1235.653528	0.085763	0.387264	14127.184570
1235.654440	0.085723	0.387264	14205.363281
1235.655329	0.085737	0.387264	14281.583984
1235.656314	0.085704	0.387264	14366.002930
1235.657215	0.085671	0.387264	14443.192383
1236.664679	1.104866	0.377765	502.713867
1236.665628	1.554415	0.377765	1977.853882
1236.666524	1.544227	0.377765	3361.481445
1236.667468	1.504797	0.377765	4782.010254
1236.668435	1.463859	0.377765	6197.561523
1236.669369	1.425754	0.377765	7529.216309
1236.670261	1.389551	0.377765	8768.695312
1236.671207	1.353834	0.377765	10049.422852
1236.672165	1.319169	0.377765	11313.186523
1236.673077	1.286316	0.377765	12486.306641
1236.674002	1.144717	0.377765	13545.169922
1236.674970	0.177228	0.377765	13716.726562
1236.675897	0.085584	0.377765	13796.062500
1236.676783	0.085657	0.377765	13871.954102
1236.677749	0.085792	0.377765	13954.829102
1236.678706	0.085701	0.377765	14036.844727
1236.679613	0.085708	0.377765	14114.582031
1236.680534	0.085638	0.377765	14193.455078
1236.681489	0.085664	0.377765	14275.264648
1236.682439	0.085741	0.377765	14356.718750
1236.683324	0.085708	0.377765	14432.570312
1237.728846	1.074558	0.381870	472.805542
1237.729835	1.554891	0.381870	2010.593140
1237.730757	1.541591	0.381870	3431.939697
1237.731661	1.504179	0.381870	4791.716797
1237.732619	1.464353	0.381870	6194.566895
1237.733533	1.425509	0.381870	7497.481934
1237.734479	1.388471	0.381870	8810.974609
1237.735374	1.354508	0.381870	10023.259766
1237.736353	1.319158	0.381870	11314.714844
1237.737270	1.285492	0.381870	12493.510742
1237.738210	1.152242	0.381870	13576.619141
1237.739108	0.189811	0.381870	13747.069336
1237.740074	0.085602	0.381870	13829.760742
1237.740984	0.085642	0.381870	13907.695312
1237.741882	0.085748	0.381870	13984.697266
1237.742828	0.085697	0.381870	14065.766602
1237.743752	0.085690	0.381870	14144.944336
1237.744681	0.085741	0.381870	14224.597656
1237.745570	0.085745	0.381870	14300.824219
1237.746559	0.085649	0.381870	14385.531250
1237.747460	0.085690	0.381870	14462.737305
1238.752862	1.084340	0.383997	484.699799
1238.753771	1.550317	0.383997	1893.938354
1238.754663	1.543502	0.383997	3270.742187
1238.755666	1.504120	0.383997	4779.374512
1238.756594	1.464847	0.383997	6138.752930
1238.757496	1.427732	0.383997	7426.567383
1238.758456	1.389935	0.383997	8760.905273
1238.759385	1.354083	0.383997	10018.848633
1238.760302	1.320930	0.383997	11230.141602
1238.761199	1.288257	0.383997	12385.708008
1238.762187	1.168652	0.383997	13540.335937
1238.763124	0.188416	0.383997	13716.880859
1238.764031	0.085675	0.383997	13794.587891
1238.764977	0.085690	0.383997	13875.650391
1238.765900	0.085741	0.383997	13954.789062
1238.766802	0.085675	0.383997	14032.068359
1238.767689	0.085679	0.383997	14108.065430
1238.768674	0.085660	0.383997	14192.441406
1238.769595	0.085693	0.383997	14271.365234
1238.770495	0.085675	0.383997	14348.472656
1238.771395	0.085730	0.383997	14425.629883
1239.819213	1.066728	0.382603	467.227081
1239.820149	1.550468	0.382603	1918.464722
1239.821106	1.542297	0.382603	3394.443359
1239.822043	1.503384	0.382603	4803.113770
1239.822954	1.464734	0.382603	6137.486328
1239.823901	1.426458	0.382603	7488.341797
1239.824857	1.388639	0.382603	8815.880859
1239.825795	1.353054	0.382603	10085.045898
1239.826704	1.320015	0.382603	11284.939453
1239.827670	1.285305	0.382603	12526.543945
1239.828613	1.100618	0.382603	13564.426758
1239.829559	0.158745	0.382603	13714.599609
1239.830452	0.085664	0.382603	13791.097656
1239.831419	0.085671	0.382603	13873.941406
1239.832371	0.085756	0.382603	13955.581055
1239.833262	0.085734	0.382603	14031.969727
1239.834186	0.085737	0.382603	14111.191406
1239.835137	0.085627	0.382603	14192.623047
1239.836065	0.085726	0.382603	14272.176758
1239.836971	0.085682	0.382603	14349.804687
1239.837942	0.085693	0.382603	14433.012695
1240.841546	1.067721	0.384299	466.594086
1240.842530	1.552877	0.384299	1994.625244
1240.843450	1.541990	0.384299	3413.255859
1240.844386	1.503541	0.384299	4820.570312
1240.845295	1.463833	0.384299	6151.194336
1240.846298	1.423707	0.384299	7579.172852
1240.847215	1.387328	0.384299	8851.352539
1240.848115	1.353153	0.384299	10069.190430
1240.849081	1.318693	0.384299	11343.047852
1240.850000	1.285122	0.384299	12524.075195
1240.850938	1.130922	0.384299	13584.879883
1240.851829	0.180487	0.384299	13745.694336
1240.852812	0.085605	0.384299	13829.844727
1240.853706	0.085624	0.384299	13906.392578
1240.854604	0.085803	0.384299	13983.444336
1240.855540	0.085759	0.384299	14063.714844
1240.856491	0.085723	0.384299	14145.237305
1240.857410	0.085668	0.384299	14223.965820
1240.858305	0.085701	0.384299	14300.667969
1240.859288	0.085671	0.384299	14384.882812
1240.860205	0.085781	0.384299	14463.543945
1241.908578	1.081919	0.383719	487.945435
1241.909515	1.550632	0.383719	1940.887817
1241.910414	1.541931	0.383719	3327.083984
1241.911370	1.502805	0.383719	4763.765625
1241.912297	1.463302	0.383719	6120.246582
1241.913211	1.426586	0.383719	7424.145996
1241.914107	1.390891	0.383719	8670.384766
1241.915094	1.353867	0.383719	10006.651367
1241.916026	1.320209	0.383719	11237.085937
1241.916945	1.286964	0.383719	12419.805664
1241.917889	1.168813	0.383719	13523.166016
1241.918835	0.191257	0.383719	13704.095703
1241.919762	0.085723	0.383719	13783.560547
1241.920657	0.085671	0.383719	13860.236328
1241.921617	0.085792	0.383719	13942.596680
1241.922525	0.085686	0.383719	14020.399414
1241.923433	0.085778	0.383719	14098.285156
1241.924325	0.085822	0.383719	14174.837891
1241.925312	0.085704	0.383719	14259.427734
1241.926237	0.085745	0.383719	14338.741211
1241.927142	0.085778	0.383719	14416.370117
1242.931043	1.075166	0.385165	480.599182
1242.931943	1.549065	0.385165	1874.757568
1242.932894	1.541393	0.385165	3340.622070
1242.933835	1.501593	0.385165	4753.621094
1242.934769	1.462434	0.385165	6119.534668
1242.935675	1.425300	0.385165	7410.856445
1242.936633	1.387566	0.385165	8740.144531
1242.937595	1.351447	0.385165	10040.236328
1242.938508	1.318129	0.385165	11243.687500
1242.939437	1.285129	0.385165	12437.572266
1242.940411	1.137063	0.385165	13545.071289
1242.941349	0.166893	0.385165	13701.617187
1242.942241	0.085627	0.385165	13777.997070
1242.943197	0.085719	0.385165	13859.944336
1242.944141	0.085719	0.385165	13940.863281
1242.945074	0.085697	0.385165	14020.818359
1242.945971	0.085657	0.385165	14097.652344
1242.946920	0.085635	0.385165	14178.919922
1242.947865	0.085723	0.385165	14259.927734
1242.948772	0.085726	0.385165	14337.681641
1242.949693	0.085649	0.385165	14416.564453
1243.997901	1.080754	0.379961	473.370422
1243.998898	1.552170	0.379961	2020.884277
1243.999812	1.538701	0.379961	3427.257324
1244.000707	1.501706	0.379961	4771.284668
1244.001676	1.462602	0.379961	6188.546387
1244.002596	1.424458	0.379961	7499.047852
1244.003509	1.388221	0.379961	8766.494141
1244.004407	1.353904	0.379961	9982.299805
1244.005386	1.318583	0.379961	11273.192383
1244.006304	1.285660	0.379961	12453.428711
1244.007207	1.192427	0.379961	13530.190430
1244.008145	0.219840	0.379961	13736.400391
1244.009079	0.085613	0.379961	13816.362305
1244.009992	0.085693	0.379961	13894.600586
1244.010887	0.085723	0.379961	13971.322266
1244.011855	0.085774	0.379961	14054.351562
1244.012784	0.085675	0.379961	14133.943359
1244.013679	0.085767	0.379961	14210.704102
1244.014573	0.085818	0.379961	14287.424805
1244.015541	0.085679	0.379961	14370.361328
1244.016456	0.085741	0.379961	14448.814453
1245.020413	1.116284	0.388646	532.467529
1245.021347	1.551962	0.388646	1981.999756
1245.022257	1.540378	0.388646	3383.744141
1245.023201	1.501483	0.388646	4801.144531
1245.024162	1.460673	0.388646	6204.851074
1245.025116	1.422158	0.388646	7561.589844
1245.026015	1.386090	0.388646	8807.684570
1245.026952	1.350505	0.388646	10073.108398
1245.027914	1.315946	0.388646	11339.048828
1245.028850	1.282394	0.388646	12539.369141
1245.029753	1.110542	0.388646	13542.188477
1245.030720	0.158027	0.388646	13695.000977
1245.031671	0.085591	0.388646	13776.397461
1245.032579	0.085778	0.388646	13854.283203
1245.033501	0.085682	0.388646	13933.282227
1245.034461	0.085697	0.388646	14015.551758
1245.035390	0.085759	0.388646	14095.221680
1245.036285	0.085748	0.388646	14171.966797
1245.037247	0.085756	0.388646	14254.463867
1245.038179	0.085734	0.388646	14334.367187
1245.039095	0.085715	0.388646	14412.882812
1246.086646	1.085786	0.380996	513.576904
1246.087553	1.550237	0.380996	1919.641724
1246.088498	1.540964	0.380996	3375.853027
1246.089420	1.502282	0.380996	4760.956543
1246.090356	1.462833	0.380996	6130.168457
1246.091264	1.425608	0.380996	7424.620117
1246.092258	1.386639	0.380996	8802.939453
1246.093175	1.351945	0.380996	10042.672852
1246.094075	1.319202	0.380996	11229.954102
1246.095012	1.286096	0.380996	12435.026367
1246.095963	1.156003	0.380996	13534.385742
1246.096877	0.192876	0.380996	13710.674805
1246.097763	0.085598	0.380996	13786.514648
1246.098722	0.085690	0.380996	13868.691406
1246.099641	0.085730	0.380996	13947.477539
1246.100569	0.085737	0.380996	14027.041992
1246.101458	0.085763	0.380996	14103.285156
1246.102449	0.085770	0.380996	14188.283203
1246.103362	0.085726	0.380996	14266.551758
1246.104251	0.085789	0.380996	14342.817383
1246.105211	0.085825	0.380996	14425.209961
1247.110917	1.104254	0.385794	545.501526
1247.111854	1.552819	0.385794	2000.492432
1247.112771	1.539965	0.385794	3412.639893
1247.113664	1.503234	0.385794	4755.027344
1247.114654	1.461445	0.385794	6201.858398
1247.115585	1.423476	0.385794	7527.115234
1247.116490	1.387467	0.385794	8782.773437
1247.117455	1.351912	0.385794	10087.368164
1247.118383	1.317685	0.385794	11310.180664
1247.119288	1.285030	0.385794	12473.132812
1247.120186	1.175457	0.385794	13528.693359
1247.121152	0.178132	0.385794	13700.769531
1247.122069	0.085624	0.385794	13779.286133
1247.122980	0.085734	0.385794	13857.389648
1247.123870	0.085737	0.385794	13933.696289
1247.124861	0.085756	0.385794	14018.679687
1247.125784	0.085734	0.385794	14097.811523
1247.126689	0.085770	0.385794	14175.433594
1247.127644	0.085759	0.385794	14257.333984
1247.128561	0.085748	0.385794	14335.964844
1247.129465	0.085708	0.385794	14413.445312
1248.175191	1.064041	0.385363	463.921661
1248.176139	1.549285	0.385363	1932.643555
1248.177083	1.540818	0.385363	3387.175781
1248.178014	1.502439	0.385363	4785.946289
1248.178907	1.464100	0.385363	6093.387695
1248.179864	1.425256	0.385363	7457.357910
1248.180818	1.387566	0.385363	8781.095703
1248.181758	1.352065	0.385363	10052.037109
1248.182663	1.318953	0.385363	11245.689453
1248.183635	1.284463	0.385363	12494.187500
1248.184594	1.118346	0.385363	13566.681641
1248.185506	0.165637	0.385363	13717.743164
1248.186432	0.085638	0.385363	13797.043945
1248.187382	0.085693	0.385363	13878.453125
1248.188313	0.085726	0.385363	13958.264648
1248.189201	0.085723	0.385363	14034.386719
1248.190167	0.085723	0.385363	14117.194336
1248.191092	0.085679	0.385363	14196.447266
1248.192019	0.085774	0.385363	14275.959961
1248.192919	0.085708	0.385363	14353.097656
1248.193890	0.085671	0.385363	14436.284180
1249.201103	1.076177	0.388815	471.365417
1249.202088	1.553156	0.388815	2001.223633
1249.203013	1.540129	0.388815	3425.843262
1249.203915	1.502816	0.388815	4781.383301
1249.204879	1.462423	0.388815	6191.159180
1249.205803	1.424249	0.388815	7507.165527
1249.206745	1.386768	0.388815	8813.500000
1249.207640	1.352626	0.388815	10024.099609
1249.208642	1.316759	0.388815	11343.492187
1249.209551	1.283731	0.388815	12510.403320
1249.210444	1.164847	0.388815	13550.612305
1249.211394	0.197794	0.388815	13738.516602
1249.212341	0.085646	0.388815	13819.623047
1249.213255	0.085723	0.388815	13897.973633
1249.214149	0.085704	0.388815	13974.593750
1249.215113	0.085767	0.388815	14057.272461
1249.216030	0.085734	0.388815	14135.890625
1249.216963	0.085796	0.388815	14215.938477
1249.217854	0.085748	0.388815	14292.339844
1249.218836	0.085745	0.388815	14376.541016
1249.219741	0.085748	0.388815	14454.143555
1250.262984	1.064385	0.382019	464.071716
1250.263976	1.551537	0.382019	2003.196289
1250.264909	1.537657	0.382019	3437.830566
1250.265828	1.499564	0.382019	4815.930176
1250.266724	1.460944	0.382019	6124.935547
1250.267718	1.421254	0.382019	7537.661621
1250.268651	1.384614	0.382019	8829.506836
1250.269560	1.350260	0.382019	10056.893555
1250.270519	1.316327	0.382019	11319.250977
1250.271440	1.283170	0.382019	12501.050781
1250.272351	1.149554	0.382019	13548.294922
1250.273241	0.193026	0.382019	13720.087891
1250.274220	0.085627	0.382019	13803.916992
1250.275136	0.085679	0.382019	13882.398437
1250.276044	0.085719	0.382019	13960.231445
1250.276955	0.085774	0.382019	14038.371094
1250.277930	0.085770	0.382019	14121.997070
1250.278855	0.085701	0.382019	14201.270508
1250.279761	0.085704	0.382019	14278.918945
1250.280706	0.085715	0.382019	14359.919922
1250.281621	0.085723	0.382019	14438.356445
1251.292126	1.081018	0.383421	482.134003
1251.293036	1.547911	0.383421	1890.733398
1251.293939	1.541155	0.383421	3282.396240
1251.294872	1.503673	0.383421	4685.323242
1251.295828	1.463156	0.383421	6084.099609
1251.296764	1.425018	0.383421	7417.916992
1251.297665	1.389316	0.383421	8669.691406
1251.298638	1.353047	0.383421	9986.206055
1251.299554	1.318781	0.383421	11194.208984
1251.300485	1.285488	0.383421	12390.998047
1251.301397	1.170564	0.383421	13458.552734
1251.302378	0.200197	0.383421	13654.945312
1251.303308	0.085605	0.383421	13734.558594
1251.304216	0.085752	0.383421	13812.420898
1251.305158	0.085891	0.383421	13893.330078
1251.306104	0.085686	0.383421	13974.388672
1251.307034	0.085756	0.383421	14054.141602
1251.307922	0.085734	0.383421	14130.273437
1251.308881	0.085752	0.383421	14212.509766
1251.309834	0.085664	0.383421	14294.147461
1251.310762	0.085675	0.383421	14373.654297
1252.351341	1.091726	0.381125	502.194000
1252.352248	1.548662	0.381125	1906.830444
1252.353139	1.541312	0.381125	3280.139648
1252.354104	1.502325	0.381125	4729.883789
1252.355034	1.463060	0.381125	6090.529785
1252.355944	1.425901	0.381125	7388.099609
1252.356895	1.388892	0.381125	8708.935547
1252.357826	1.353087	0.381125	9968.659180
1252.358740	1.319868	0.381125	11175.018555
1252.359637	1.287623	0.381125	12330.016602
1252.360625	1.189512	0.381125	13505.253906
1252.361555	0.207744	0.381125	13698.456055
1252.362457	0.085712	0.381125	13775.767578
1252.363343	0.085715	0.381125	13851.710937
1252.364319	0.085675	0.381125	13935.330078
1252.365232	0.085657	0.381125	14013.535156
1252.366136	0.085719	0.381125	14091.025391
1252.367098	0.085708	0.381125	14173.476562
1252.368022	0.085734	0.381125	14252.694336
1252.368936	0.085789	0.381125	14331.105469
1252.369826	0.085679	0.381125	14407.359375
1253.382735	1.059987	0.385524	464.274139
1253.383638	1.546919	0.385524	1861.141968
1253.384539	1.541821	0.385524	3250.322998
1253.385467	1.503278	0.385524	4645.364258
1253.386432	1.463774	0.385524	6057.906738
1253.387363	1.426318	0.385524	7385.809082
1253.388259	1.390151	0.385524	8631.384766
1253.389230	1.353666	0.385524	9945.793945
1253.390190	1.319253	0.385524	11212.276367
1253.391100	1.286510	0.385524	12383.000000
1253.392030	1.181869	0.385524	13482.137695
1253.392988	0.209125	0.385524	13682.479492
1253.393917	0.085580	0.385524	13761.983398
1253.394807	0.085609	0.385524	13838.175781
1253.395773	0.085734	0.385524	13920.994141
1253.396707	0.085704	0.385524	14001.041992
1253.397614	0.085730	0.385524	14078.798828
1253.398545	0.085686	0.385524	14158.572266
1253.399487	0.085690	0.385524	14239.291992
1253.400426	0.085701	0.385524	14319.764648
1253.401329	0.085686	0.385524	14397.138672
1254.438989	1.063634	0.384505	462.680817
1254.439907	1.546868	0.384505	1882.705200
1254.440867	1.540140	0.384505	3361.239990
1254.441788	1.501505	0.384505	4744.125977
1254.442695	1.463459	0.384505	6071.483887
1254.443669	1.424275	0.384505	7458.727539
1254.444592	1.387427	0.384505	8739.322266
1254.445503	1.352959	0.384505	9971.868164
1254.446396	1.320608	0.384505	11151.170898
1254.447352	1.286506	0.384505	12381.071289
1254.448286	1.189303	0.384505	13491.879883
1254.449200	0.222506	0.384505	13695.250000
1254.450097	0.085741	0.384505	13772.159180
1254.451094	0.085558	0.384505	13857.459961
1254.452010	0.085719	0.384505	13935.978516
1254.452909	0.085649	0.384505	14012.977539
1254.453866	0.085664	0.384505	14094.958008
1254.454787	0.085697	0.384505	14173.884766
1254.455685	0.085591	0.384505	14250.745117
1254.456574	0.085682	0.384505	14326.916992
1254.457568	0.085638	0.384505	14412.041992
1255.473129	1.094286	0.381882	503.371490
1255.474070	1.549937	0.381882	1961.861694
1255.474963	1.540104	0.381882	3337.174316
1255.475893	1.501003	0.381882	4733.107422
1255.476855	1.460658	0.381882	6138.260254
1255.477786	1.422902	0.381882	7462.981445
1255.478695	1.386233	0.381882	8723.067383
1255.479670	1.350044	0.381882	10039.360352
1255.480629	1.315668	0.381882	11301.085937
1255.481546	1.282800	0.381882	12477.414062
1255.482479	1.123407	0.381882	13525.552734
1255.483444	0.165853	0.381882	13685.601562
1255.484379	0.085635	0.381882	13765.669922
1255.485270	0.085752	0.381882	13842.075195
1255.486240	0.085759	0.381882	13925.261719
1255.487187	0.085763	0.381882	14006.479492
1255.488094	0.085770	0.381882	14084.273437
1255.489014	0.085726	0.381882	14163.141602
1255.489964	0.085723	0.381882	14244.578125
1255.490899	0.085723	0.381882	14324.728516
1255.491807	0.085730	0.381882	14402.571289
1256.527050	1.058309	0.380029	458.247925
1256.528025	1.548105	0.380029	1967.650757
1256.528951	1.539185	0.380029	3392.935547
1256.529885	1.500516	0.380029	4794.417969
1256.530783	1.461995	0.380029	6107.289062
1256.531753	1.423191	0.380029	7487.784180
1256.532689	1.385951	0.380029	8785.034180
1256.533585	1.351747	0.380029	9996.199219
1256.534532	1.318055	0.380029	11244.397461
1256.535473	1.283954	0.380029	12452.597656
1256.536410	1.151708	0.380029	13531.748047
1256.537313	0.192631	0.380029	13705.693359
1256.538250	0.085653	0.380029	13785.950195
1256.539197	0.085668	0.380029	13867.077148
1256.540124	0.085741	0.380029	13946.558594
1256.541014	0.085704	0.380029	14022.835937
1256.542006	0.085726	0.380029	14107.875977
1256.542940	0.085708	0.380029	14187.927734
1256.543833	0.085704	0.380029	14264.461914
1256.544769	0.085756	0.380029	14344.729492
1256.545713	0.085686	0.380029	14425.617187
1257.563857	1.066886	0.382793	467.296051
1257.564786	1.548300	0.382793	1905.666260
1257.565702	1.540715	0.382793	3316.961426
1257.566663	1.501186	0.382793	4759.601562
1257.567585	1.461874	0.382793	6107.449219
1257.568503	1.424564	0.382793	7415.199219
1257.569397	1.388551	0.382793	8656.563477
1257.570369	1.352472	0.382793	9971.166016
1257.571299	1.318781	0.382793	11197.631836
1257.572204	1.285961	0.382793	12361.425781
1257.573094	1.196309	0.382793	13426.140625
1257.574069	0.219247	0.382793	13639.906250
1257.574987	0.085671	0.382793	13718.552734
1257.575883	0.085715	0.382793	13795.353516
1257.576831	0.085737	0.382793	13876.632812
1257.577775	0.085686	0.382793	13957.520508
1257.578683	0.085697	0.382793	14035.333008
1257.579572	0.085822	0.382793	14111.627930
1257.580554	0.085730	0.382793	14195.814453
1257.581481	0.085763	0.382793	14275.316406
1257.582386	0.085723	0.382793	14352.895508
1258.615114	1.064502	0.383058	466.251862
1258.616103	1.548728	0.383058	1997.943848
1258.617054	1.537083	0.383058	3459.709473
1258.617956	1.499432	0.383058	4812.197266
1258.618903	1.459995	0.383058	6194.812500
1258.619849	1.421082	0.383058	7539.155762
1258.620776	1.384248	0.383058	8822.353516
1258.621679	1.350165	0.383058	10041.552734
1258.622635	1.315953	0.383058	11299.604492
1258.623589	1.281852	0.383058	12522.491211
1258.624502	1.129058	0.383058	13553.320312
1258.625421	0.175074	0.383058	13714.213867
1258.626357	0.085602	0.383058	13794.336914
1258.627309	0.085690	0.383058	13875.913086
1258.628210	0.085730	0.383058	13953.156250
1258.629145	0.085719	0.383058	14033.303711
1258.630099	0.085686	0.383058	14115.047852
1258.631023	0.085858	0.383058	14194.380859
1258.631908	0.085734	0.383058	14270.254883
1258.632859	0.085690	0.383058	14351.746094
1258.633809	0.085818	0.383058	14433.273437
1259.654141	1.088079	0.377999	527.718140
1259.655091	1.551881	0.377999	2002.005127
1259.656036	1.537192	0.377999	3454.651855
1259.656931	1.499839	0.377999	4797.007812
1259.657899	1.458867	0.377999	6209.191406
1259.658842	1.420342	0.377999	7548.573730
1259.659781	1.383673	0.377999	8847.842773
1259.660675	1.349381	0.377999	10054.189453
1259.661663	1.314573	0.377999	11352.987305
1259.662596	1.281028	0.377999	12548.186523
1259.663496	1.116782	0.377999	13553.290039
1259.664455	0.164513	0.377999	13711.057617
1259.665384	0.085635	0.377999	13790.612305
1259.666311	0.085701	0.377999	13870.056641
1259.667215	0.085715	0.377999	13947.542969
1259.668177	0.085715	0.377999	14030.000977
1259.669104	0.085690	0.377999	14109.435547
1259.670004	0.085715	0.377999	14186.579102
1259.670930	0.085693	0.377999	14265.931641
1259.671884	0.085759	0.377999	14347.746094
1259.672829	0.085693	0.377999	14428.726562
1260.703839	1.086335	0.381371	487.764618
1260.704754	1.548560	0.381371	1904.696655
1260.705647	1.541404	0.381371	3281.170166
1260.706644	1.501432	0.381371	4778.097656
1260.707576	1.462929	0.381371	6141.546875
1260.708492	1.425641	0.381371	7447.434082
1260.709442	1.388738	0.381371	8766.735352
1260.710362	1.353003	0.381371	10011.498047
1260.711274	1.320201	0.381371	11215.521484
1260.712171	1.287590	0.381371	12370.490234
1260.713167	1.168927	0.381371	13534.741211
1260.714085	0.195923	0.381371	13714.598633
1260.714983	0.085584	0.381371	13791.452148
1260.715885	0.085697	0.381371	13868.750977
1260.716862	0.085803	0.381371	13952.581055
1260.717785	0.085734	0.381371	14031.712891
1260.718692	0.085814	0.381371	14109.545898
1260.719640	0.085708	0.381371	14190.796875
1260.720558	0.085767	0.381371	14269.530273
1260.721462	0.085767	0.381371	14347.063477
1260.722352	0.085759	0.381371	14423.389648
1261.744204	1.074822	0.372110	470.771912
1261.745193	1.551768	0.372110	2005.469971
1261.746136	1.538628	0.372110	3456.395996
1261.747035	1.501201	0.372110	4805.975586
1261.747965	1.461537	0.372110	6165.205078
1261.748931	1.422579	0.372110	7539.416504
1261.749862	1.385420	0.372110	8829.242187
1261.750756	1.351143	0.372110	10037.164062
1261.751730	1.316495	0.372110	11319.430664
1261.752692	1.282562	0.372110	12553.255859
1261.753592	1.129043	0.372110	13569.394531
1261.754515	0.172764	0.372110	13728.855469
1261.755471	0.085631	0.372110	13810.718750
1261.756402	0.085800	0.372110	13890.597656
1261.757300	0.085752	0.372110	13967.602539
1261.758264	0.085693	0.372110	14050.210937
1261.759216	0.085704	0.372110	14131.801758
1261.760119	0.085774	0.372110	14209.255859
1261.761040	0.085726	0.372110	14288.209961
1261.761984	0.085682	0.372110	14369.093750
1261.762931	0.085660	0.372110	14450.213867
1262.792399	1.070599	0.386116	474.275513
1262.793389	1.552094	0.386116	2010.848022
1262.794321	1.538199	0.386116	3444.449707
1262.795232	1.499667	0.386116	4810.645996
1262.796133	1.460292	0.386116	6126.369141
1262.797105	1.421565	0.386116	7508.130371
1262.798025	1.385090	0.386116	8782.413086
1262.798930	1.350901	0.386116	10004.978516
1262.799891	1.316525	0.386116	11270.158203
1262.800830	1.282840	0.386116	12474.745117
1262.801749	1.152620	0.386116	13534.002930
1262.802645	0.192664	0.386116	13706.629883
1262.803611	0.085715	0.386116	13789.430664
1262.804541	0.085664	0.386116	13869.098633
1262.805467	0.085770	0.386116	13948.521484
1262.806356	0.085745	0.386116	14024.748047
1262.807348	0.085693	0.386116	14109.755859
1262.808251	0.085741	0.386116	14187.179687
1262.809148	0.085679	0.386116	14264.033203
1262.810105	0.085800	0.386116	14346.143555
1262.811020	0.085748	0.386116	14424.603516
1263.833555	1.058980	0.373081	464.891998
1263.834451	1.544974	0.373081	1849.189087
1263.835412	1.538709	0.373081	3327.888184
1263.836362	1.499696	0.373081	4752.599609
1263.837301	1.460186	0.373081	6123.713867
1263.838210	1.423191	0.373081	7417.394531
1263.839205	1.384600	0.373081	8795.071289
1263.840134	1.349623	0.373081	10048.871094
1263.841045	1.316726	0.373081	11248.408203
1263.841942	1.284521	0.373081	12400.624023
1263.842923	1.145101	0.373081	13523.968750
1263.843852	0.179458	0.373081	13690.685547
1263.844742	0.085631	0.373081	13766.897461
1263.845665	0.085726	0.373081	13846.022461
1263.846623	0.085770	0.373081	13928.190430
1263.847546	0.085638	0.373081	14007.234375
1263.848448	0.085803	0.373081	14084.628906
1263.849397	0.085858	0.373081	14166.108398
1263.850321	0.085748	0.373081	14245.339844
1263.851233	0.085748	0.373081	14323.541992
1263.852122	0.085741	0.373081	14399.765625
1264.882029	1.108814	0.384545	521.142334
1264.882948	1.548669	0.384545	1944.369507
1264.883849	1.540188	0.384545	3332.079102
1264.884779	1.501706	0.384545	4728.666016
1264.885750	1.460885	0.384545	6147.185547
1264.886681	1.423191	0.384545	7472.176270
1264.887576	1.387170	0.384545	8713.693359
1264.888546	1.351066	0.384545	10024.226562
1264.889503	1.316741	0.384545	11284.347656
1264.890409	1.284097	0.384545	12447.739258
1264.891343	1.132654	0.384545	13505.637695
1264.892311	0.174196	0.384545	13674.258789
1264.893239	0.085646	0.384545	13753.738281
1264.894139	0.085712	0.384545	13830.878906
1264.895098	0.085767	0.384545	13913.128906
1264.896049	0.085730	0.384545	13994.658203
1264.896958	0.085818	0.384545	14072.666992
1264.897881	0.085811	0.384545	14151.870117
1264.898823	0.085748	0.384545	14232.644531
1264.899775	0.085814	0.384545	14314.339844
1264.900674	0.085789	0.384545	14391.463867
1265.922768	1.076715	0.375840	474.831360
1265.923738	1.549702	0.375840	1978.042480
1265.924654	1.537544	0.375840	3386.432617
1265.925557	1.500853	0.375840	4741.703125
1265.926515	1.461434	0.375840	6141.757324
1265.927441	1.422770	0.375840	7459.242187
1265.928384	1.385724	0.375840	8765.979492
1265.929278	1.351622	0.375840	9974.330078
1265.930272	1.315961	0.375840	11282.394531
1265.931188	1.283214	0.375840	12457.818359
1265.932124	1.154293	0.375840	13538.237305
1265.933014	0.196520	0.375840	13713.139648
1265.933991	0.085646	0.375840	13796.815430
1265.934899	0.085745	0.375840	13874.671875
1265.935829	0.085829	0.375840	13954.493164
1265.936716	0.085737	0.375840	14030.541992
1265.937710	0.085745	0.375840	14115.772461
1265.938640	0.085785	0.375840	14195.552734
1265.939528	0.085715	0.375840	14271.667969
1265.940528	0.085682	0.375840	14357.350586
1265.941441	0.085723	0.375840	14435.615234
1266.971085	1.062521	0.385230	465.384094
1266.972034	1.545143	0.385230	1931.724609
1266.972967	1.538588	0.385230	3367.226807
1266.973894	1.500410	0.385230	4758.106934
1266.974794	1.462079	0.385230	6073.978027
1266.975760	1.423264	0.385230	7448.851074
1266.976676	1.386427	0.385230	8718.818359
1266.977588	1.352483	0.385230	9952.283203
1266.978479	1.319249	0.385230	11127.734375
1266.979448	1.285170	0.385230	12373.063477
1266.980391	1.183235	0.385230	13488.853516
1266.981294	0.218972	0.385230	13686.584961
1266.982245	0.085814	0.385230	13768.194336
1266.983164	0.085697	0.385230	13846.950195
1266.984075	0.085686	0.385230	13925.009766
1266.984963	0.085756	0.385230	14001.161133
1266.985949	0.085781	0.385230	14085.741211
1266.986868	0.085778	0.385230	14164.571289
1266.987765	0.085745	0.385230	14241.484375
1266.988691	0.085811	0.385230	14320.945312
1266.989634	0.085745	0.385230	14401.802734
1268.012268	1.073591	0.374398	487.410431
1268.013163	1.547421	0.374398	1872.351807
1268.014098	1.540243	0.374398	3312.479004
1268.015060	1.500637	0.374398	4756.091797
1268.015997	1.461563	0.374398	6125.576172
1268.016903	1.424758	0.374398	7416.407227
1268.017868	1.387119	0.374398	8754.977539
1268.018825	1.351135	0.374398	10048.013672
1268.019740	1.317689	0.374398	11253.699219
1268.020674	1.284426	0.374398	12453.353516
1268.021645	1.122103	0.374398	13542.916016
1268.022604	0.159525	0.374398	13695.900391
1268.023512	0.085690	0.374398	13773.707031
1268.024436	0.085649	0.374398	13852.846680
1268.025378	0.085657	0.374398	13933.535156
1268.026319	0.085690	0.374398	14014.168945
1268.027213	0.085748	0.374398	14090.828125
1268.028133	0.085697	0.374398	14169.668945
1268.029087	0.085668	0.374398	14251.395508
1268.030013	0.085704	0.374398	14330.757812
1268.030915	0.085741	0.374398	14408.095703
1269.060440	1.062825	0.383747	466.580048
1269.061348	1.547457	0.383747	1871.671387
1269.062249	1.541836	0.383747	3260.865479
1269.063213	1.502106	0.383747	4708.895508
1269.064148	1.461244	0.383747	6075.158691
1269.065087	1.423667	0.383747	7411.981934
1269.065979	1.388123	0.383747	8650.187500
1269.066961	1.351344	0.383747	9977.207031
1269.067894	1.317510	0.383747	11206.443359
1269.068815	1.284386	0.383747	12389.363281
1269.069724	1.165712	0.383747	13448.995117
1269.070706	0.196527	0.383747	13641.984375
1269.071631	0.085682	0.383747	13721.240234
1269.072536	0.085719	0.383747	13798.816406
1269.073525	0.085708	0.383747	13883.582031
1269.074443	0.085781	0.383747	13962.329102
1269.075379	0.085763	0.383747	14042.603516
1269.076266	0.085759	0.383747	14118.671875
1269.077243	0.085763	0.383747	14202.461914
1269.078178	0.085792	0.383747	14282.677734
1269.079070	0.085774	0.383747	14359.188477
1270.100933	1.056998	0.370627	458.737305
1270.101908	1.545685	0.370627	1965.780029
1270.102828	1.539342	0.370627	3381.974609
1270.103740	1.502058	0.370627	4751.851562
1270.104635	1.463573	0.370627	6061.749512
1270.105617	1.424458	0.370627	7460.567383
1270.106547	1.387764	0.370627	8751.187500
1270.107442	1.353534	0.370627	9962.600586
1270.108376	1.319528	0.370627	11195.039062
1270.109328	1.285269	0.370627	12418.615234
1270.110257	1.178826	0.370627	13513.744141
1270.111169	0.213798	0.370627	13708.727539
1270.112126	0.085814	0.370627	13790.851562
1270.113048	0.085763	0.370627	13869.924805
1270.113957	0.085708	0.370627	13947.833008
1270.114845	0.085712	0.370627	14023.945312
1270.115829	0.085693	0.370627	14108.267578
1270.116755	0.085675	0.370627	14187.602539
1270.117652	0.085704	0.370627	14264.479492
1270.118616	0.085822	0.370627	14347.211914
1270.119527	0.085756	0.370627	14425.334961
1271.150204	1.092008	0.378640	529.623901
1271.151162	1.551314	0.378640	2015.782227
1271.152100	1.537859	0.378640	3458.293945
1271.152995	1.500264	0.378640	4801.029785
1271.153949	1.460504	0.378640	6194.350586
1271.154904	1.421679	0.378640	7552.053711
1271.155820	1.385105	0.378640	8820.809570
1271.156751	1.350297	0.378640	10077.935547
1271.157697	1.315397	0.378640	11322.300781
1271.158652	1.281050	0.378640	12545.703125
1271.159559	1.115002	0.378640	13557.010742
1271.160488	0.158405	0.378640	13704.168945
1271.161440	0.085660	0.378640	13785.717773
1271.162367	0.085759	0.378640	13865.216797
1271.163252	0.085708	0.378640	13941.068359
1271.164211	0.085785	0.378640	14023.335937
1271.165166	0.085723	0.378640	14105.201172
1271.166058	0.085796	0.378640	14181.731445
1271.166977	0.085752	0.378640	14260.537109
1271.167929	0.085789	0.378640	14342.208008
1271.168873	0.085627	0.378640	14423.040039
1272.189803	1.085500	0.375792	493.902710
1272.190708	1.547025	0.375792	1893.960449
1272.191646	1.539210	0.375792	3337.739746
1272.192538	1.502040	0.375792	4677.559082
1272.193504	1.461687	0.375792	6089.548828
1272.194439	1.423656	0.375792	7420.666992
1272.195348	1.387613	0.375792	8682.007812
1272.196306	1.352131	0.375792	9977.349609
1272.197238	1.317444	0.375792	11205.207031
1272.198177	1.284064	0.375792	12410.943359
1272.199085	1.188362	0.375792	13489.975586
1272.200045	0.187072	0.375792	13669.564453
1272.200999	0.085594	0.375792	13751.221680
1272.201928	0.085668	0.375792	13830.806641
1272.202815	0.085690	0.375792	13906.813477
1272.203769	0.085734	0.375792	13988.603516
1272.204727	0.085811	0.375792	14070.809570
1272.205620	0.085759	0.375792	14147.392578
1272.206542	0.085664	0.375792	14226.375000
1272.207496	0.085748	0.375792	14308.178711
1272.208421	0.085756	0.375792	14387.502930
1273.240150	1.067651	0.382362	474.037231
1273.241047	1.546381	0.382362	1861.140625
1273.242015	1.540466	0.382362	3352.312012
1273.242947	1.502062	0.382362	4752.233398
1273.243861	1.463295	0.382362	6089.684570
1273.244756	1.426432	0.382362	7366.340820
1273.245744	1.387551	0.382362	8737.241211
1273.246667	1.352717	0.382362	9985.798828
1273.247572	1.319824	0.382362	11180.240234
1273.248498	1.286711	0.382362	12371.735352
1273.249463	1.180188	0.382362	13510.617187
1273.250370	0.211626	0.382362	13702.561523
1273.251261	0.085649	0.382362	13778.875000
1273.252221	0.085598	0.382362	13861.048828
1273.253162	0.085635	0.382362	13941.630859
1273.254075	0.085671	0.382362	14019.848633
1273.254966	0.085723	0.382362	14096.227539
1273.255969	0.085635	0.382362	14182.119141
1273.256889	0.085664	0.382362	14260.929687
1273.257782	0.085690	0.382362	14337.450195
1273.258737	0.085664	0.382362	14419.259766
1274.278379	1.098083	0.379099	512.804993
1274.279292	1.550804	0.379099	1928.689453
1274.280186	1.541982	0.379099	3307.221680
1274.281157	1.502476	0.379099	4766.125488
1274.282117	1.461768	0.379099	6169.422363
1274.283029	1.424088	0.379099	7468.190430
1274.283973	1.386801	0.379099	8777.330078
1274.284928	1.350740	0.379099	10067.286133
1274.285881	1.316484	0.379099	11321.895508
1274.286779	1.283738	0.379099	12474.692383
1274.287743	1.120060	0.379099	13554.429687
1274.288669	0.164385	0.379099	13706.650391
1274.289589	0.085562	0.379099	13785.367187
1274.290500	0.085668	0.379099	13863.410156
1274.291452	0.085708	0.379099	13945.003906
1274.292379	0.085704	0.379099	14024.452148
1274.293293	0.085602	0.379099	14102.692383
1274.294182	0.085664	0.379099	14178.847656
1274.295165	0.085704	0.379099	14263.094727
1274.296086	0.085693	0.379099	14342.018555
1274.296984	0.085708	0.379099	14418.984375
1275.330297	1.104807	0.379796	522.573792
1275.331216	1.550054	0.379796	1947.073242
1275.332121	1.540225	0.379796	3340.976562
1275.333048	1.502388	0.379796	4733.689941
1275.334015	1.461793	0.379796	6147.244141
1275.334950	1.423927	0.379796	7478.615723
1275.335846	1.387819	0.379796	8722.101562
1275.336813	1.351483	0.379796	10028.986328
1275.337776	1.316924	0.379796	11297.183594
1275.338691	1.283705	0.379796	12471.773437
1275.339639	1.120518	0.379796	13534.024414
1275.340595	0.167454	0.379796	13694.110352
1275.341540	0.085547	0.379796	13774.952148
1275.342429	0.085627	0.379796	13851.075195
1275.343354	0.085690	0.379796	13930.337891
1275.344316	0.085649	0.379796	14012.732422
1275.345250	0.085646	0.379796	14092.725586
1275.346153	0.085675	0.379796	14170.089844
1275.347111	0.085675	0.379796	14252.166992
1275.348040	0.085690	0.379796	14331.772461
1275.348971	0.085664	0.379796	14411.525391
1276.366675	1.068860	0.377238	473.504913
1276.367568	1.546948	0.377238	1854.929687
1276.368558	1.539686	0.377238	3379.219238
1276.369488	1.502179	0.377238	4776.245605
1276.370407	1.463258	0.377238	6120.979492
1276.371302	1.425439	0.377238	7396.748047
1276.372294	1.386830	0.377238	8772.483398
1276.373204	1.352538	0.377238	10003.292969
1276.374103	1.319941	0.377238	11189.919922
1276.375078	1.285803	0.377238	12443.578125
1276.375998	1.167418	0.377238	13517.602539
1276.376911	0.201394	0.377238	13701.475586
1276.377806	0.085609	0.377238	13778.095703
1276.378773	0.085704	0.377238	13860.971680
1276.379685	0.085638	0.377238	13939.074219
1276.380585	0.085704	0.377238	14016.208008
1276.381502	0.085664	0.377238	14094.761719
1276.382467	0.085719	0.377238	14177.480469
1276.383374	0.085682	0.377238	14255.194336
1276.384266	0.085657	0.377238	14331.600586
1276.385236	0.085657	0.377238	14414.687500
1277.420539	1.082567	0.379187	510.971680
1277.421460	1.553536	0.379187	1941.778564
1277.422363	1.545795	0.379187	3337.631104
1277.423289	1.508137	0.379187	4734.166016
1277.424239	1.467246	0.379187	6128.049805
1277.425182	1.427860	0.379187	7474.521973
1277.426091	1.391678	0.379187	8739.557617
1277.427036	1.355277	0.379187	10020.294922
1277.428006	1.320179	0.379187	11300.869141
1277.428944	1.286777	0.379187	12507.866211
1277.429840	1.150444	0.379187	13538.664062
1277.430803	0.180817	0.379187	13712.790039
1277.431743	0.085492	0.379187	13793.152344
1277.432648	0.085624	0.379187	13870.641602
1277.433578	0.085723	0.379187	13950.363281
1277.434530	0.085646	0.379187	14031.898437
1277.435459	0.085664	0.379187	14111.480469
1277.436361	0.085668	0.379187	14188.752930
1277.437328	0.085682	0.379187	14271.607422
1277.438280	0.085646	0.379187	14353.142578
1277.439186	0.085712	0.379187	14430.796875
1278.454477	1.068607	0.374837	466.981293
1278.455475	1.556382	0.374837	2020.250366
1278.456401	1.544169	0.374837	3450.150391
1278.457345	1.504856	0.374837	4870.734375
1278.458243	1.465620	0.374837	6186.861328
1278.459236	1.425590	0.374837	7602.471680
1278.460139	1.389122	0.374837	8856.849609
1278.461039	1.354871	0.374837	10076.233398
1278.461999	1.320135	0.374837	11343.563477
1278.462917	1.286349	0.374837	12524.431641
1278.463855	1.137543	0.374837	13591.447266
1278.464761	0.179663	0.374837	13754.221680
1278.465748	0.085605	0.374837	13838.713867
1278.466662	0.085624	0.374837	13916.973633
1278.467561	0.085642	0.374837	13993.965820
1278.468509	0.085671	0.374837	14075.182617
1278.469438	0.085638	0.374837	14154.740234
1278.470346	0.085646	0.374837	14232.506836
1278.471230	0.085660	0.374837	14308.230469
1278.472199	0.085708	0.374837	14391.281250
1278.473118	0.085653	0.374837	14469.996094
1279.510917	1.122671	0.375135	546.740723
1279.511843	1.556437	0.375135	1988.001221
1279.512746	1.546267	0.375135	3384.280273
1279.513641	1.508917	0.375135	4734.761230
1279.514614	1.467261	0.375135	6162.405762
1279.515542	1.428713	0.375135	7488.251953
1279.516459	1.392206	0.375135	8764.904297
1279.517374	1.356962	0.375135	10006.524414
1279.518346	1.321714	0.375135	11291.230469
1279.519270	1.288198	0.375135	12481.525391
1279.520171	1.193357	0.375135	13556.740234
1279.521126	0.201863	0.375135	13749.519531
1279.522052	0.085624	0.375135	13828.807617
1279.522952	0.085748	0.375135	13905.981445
1279.523835	0.085624	0.375135	13981.586914
1279.524810	0.085723	0.375135	14065.166016
1279.525736	0.085697	0.375135	14144.521484
1279.526642	0.085785	0.375135	14222.242187
1279.527593	0.085752	0.375135	14303.791992
1279.528512	0.085748	0.375135	14382.594727
1279.529423	0.085748	0.375135	14460.710937
1280.542303	1.081751	0.376702	480.297241
1280.543227	1.554492	0.376702	1916.647949
1280.544136	1.547153	0.376702	3323.010254
1280.545096	1.508134	0.376702	4770.818359
1280.546019	1.467440	0.376702	6125.265625
1280.546953	1.429010	0.376702	7459.960937
1280.547856	1.392403	0.376702	8717.300781
1280.548840	1.355109	0.376702	10050.727539
1280.549767	1.321384	0.376702	11275.650391
1280.550701	1.287755	0.376702	12478.414062
1280.551595	1.182422	0.376702	13535.499023
1280.552576	0.186354	0.376702	13718.312500
1280.553499	0.085525	0.376702	13797.251953
1280.554387	0.085649	0.376702	13873.308594
1280.555308	0.085679	0.376702	13952.218750
1280.556263	0.085664	0.376702	14034.028320
1280.557186	0.085668	0.376702	14113.099609
1280.558089	0.085745	0.376702	14190.527344
1280.559030	0.085690	0.376702	14271.161133
1280.559975	0.085594	0.376702	14352.047852
1280.560900	0.085741	0.376702	14431.358398
1281.601496	1.084702	0.371928	482.692444
1281.602424	1.554012	0.371928	1924.815918
1281.603333	1.546359	0.371928	3330.456055
1281.604318	1.506094	0.371928	4813.958496
1281.605239	1.466048	0.371928	6164.188965
1281.606150	1.428494	0.371928	7465.546875
1281.607044	1.391741	0.371928	8709.762695
1281.608024	1.355178	0.371928	10037.837891
1281.608956	1.321003	0.371928	11269.012695
1281.609866	1.288110	0.371928	12441.193359
1281.610827	1.164034	0.371928	13559.830078
1281.611756	0.188511	0.371928	13734.957031
1281.612669	0.085679	0.371928	13813.181641
1281.613557	0.085624	0.371928	13889.215820
1281.614550	0.085649	0.371928	13974.265625
1281.615470	0.085653	0.371928	14053.066406
1281.616369	0.085693	0.371928	14130.104492
1281.617308	0.085719	0.371928	14210.594727
1281.618237	0.085668	0.371928	14290.179687
1281.619142	0.085708	0.371928	14367.745117
1281.620035	0.085690	0.371928	14444.265625
1282.630251	1.090265	0.380763	502.612122
1282.631160	1.553112	0.380763	1914.390625
1282.632055	1.545472	0.380763	3297.588379
1282.633035	1.505716	0.380763	4773.190430
1282.633988	1.465129	0.380763	6169.458984
1282.634905	1.427465	0.380763	7478.443848
1282.635845	1.389587	0.380763	8784.656250
1282.636810	1.353157	0.380763	10090.452148
1282.637751	1.318872	0.380763	11331.510742
1282.638649	1.286089	0.380763	12486.417969
1282.639617	1.116215	0.380763	13566.914062
1282.640580	0.162023	0.380763	13722.942383
1282.641475	0.085558	0.380763	13799.516602
1282.642406	0.085679	0.380763	13879.283203
1282.643356	0.085624	0.380763	13960.625977
1282.644285	0.085715	0.380763	14040.255859
1282.645186	0.085668	0.380763	14117.442383
1282.646145	0.085697	0.380763	14199.625977
1282.647073	0.085679	0.380763	14279.135742
1282.648008	0.085616	0.380763	14359.187500
1282.648898	0.085668	0.380763	14435.431641
1283.691646	1.125502	0.377447	541.366333
1283.692568	1.554185	0.377447	1974.324463
1283.693507	1.543392	0.377447	3423.569824
1283.694401	1.505566	0.377447	4769.545898
1283.695400	1.463712	0.377447	6231.794434
1283.696306	1.426417	0.377447	7524.128418
1283.697202	1.390540	0.377447	8770.051758
1283.698168	1.353948	0.377447	10077.964844
1283.699088	1.320007	0.377447	11292.371094
1283.700020	1.286777	0.377447	12491.647461
1283.700925	1.158812	0.377447	13540.373047
1283.701896	0.175162	0.377447	13710.456055
1283.702805	0.085635	0.377447	13788.297852
1283.703737	0.085620	0.377447	13868.095703
1283.704628	0.085671	0.377447	13944.428711
1283.705604	0.085664	0.377447	14028.037109
1283.706547	0.085682	0.377447	14108.835937
1283.707439	0.085668	0.377447	14185.251953
1283.708403	0.085697	0.377447	14267.864258
1283.709307	0.085624	0.377447	14345.268555
1283.710228	0.085664	0.377447	14424.165039
1284.718798	1.061448	0.372670	462.791229
1284.719748	1.550735	0.372670	1935.989258
1284.720699	1.543967	0.372670	3404.302246
1284.721638	1.504728	0.372670	4817.241699
1284.722554	1.465756	0.372670	6159.874023
1284.723484	1.426769	0.372670	7486.769043
1284.724449	1.388401	0.372670	8826.576172
1284.725393	1.353248	0.372670	10104.042969
1284.726292	1.320066	0.372670	11290.782227
1284.727261	1.285280	0.372670	12536.217773
1284.728229	1.096355	0.372670	13597.489258
1284.729132	0.160144	0.372670	13742.099609
1284.730072	0.085573	0.372670	13822.538086
1284.731027	0.085642	0.372670	13904.326172
1284.731967	0.085748	0.372670	13984.929687
1284.732858	0.085686	0.372670	14061.276367
1284.733861	0.085686	0.372670	14147.219727
1284.734765	0.085675	0.372670	14224.669922
1284.735672	0.085701	0.372670	14302.400391
1284.736559	0.085719	0.372670	14378.433594
1284.737515	0.085693	0.372670	14460.356445
1285.782536	1.089935	0.369777	527.528687
1285.783479	1.555023	0.369777	1993.915527
1285.784375	1.544004	0.369777	3377.343018
1285.785310	1.505372	0.369777	4784.866211
1285.786280	1.463848	0.369777	6204.798828
1285.787217	1.425176	0.369777	7540.188477
1285.788124	1.388800	0.369777	8799.830078
1285.789083	1.353113	0.369777	10097.464844
1285.790033	1.318074	0.369777	11349.634766
1285.790959	1.284664	0.369777	12539.234375
1285.791860	1.126066	0.369777	13553.819336
1285.792818	0.162144	0.369777	13709.153320
1285.793774	0.085613	0.369777	13790.999023
1285.794669	0.085693	0.369777	13867.694336
1285.795603	0.085627	0.369777	13947.669922
1285.796557	0.085660	0.369777	14029.389648
1285.797488	0.085719	0.369777	14109.194336
1285.798394	0.085767	0.369777	14186.898437
1285.799324	0.085605	0.369777	14266.511719
1285.800287	0.085649	0.369777	14348.992187
1285.801211	0.085690	0.369777	14428.169922
1286.807330	1.115577	0.368524	589.024902
1286.808267	1.556865	0.368524	2047.807617
1286.809185	1.541484	0.368524	3462.890137
1286.810079	1.503746	0.368524	4807.239258
1286.811067	1.462203	0.368524	6251.896484
1286.811975	1.424908	0.368524	7545.713379
1286.812874	1.389144	0.368524	8794.553711
1286.813802	1.353600	0.368524	10050.694336
1286.814758	1.318572	0.368524	11311.249023
1286.815679	1.285492	0.368524	12495.187500
1286.816583	1.166407	0.368524	13549.620117
1286.817539	0.180535	0.368524	13722.210937
1286.818475	0.085653	0.368524	13802.381836
1286.819384	0.085792	0.368524	13880.367187
1286.820279	0.085719	0.368524	13957.085937
1286.821244	0.085778	0.368524	14039.861328
1286.822150	0.085708	0.368524	14117.512695
1286.823043	0.085745	0.368524	14194.083008
1286.824017	0.085660	0.368524	14277.516602
1286.824940	0.085730	0.368524	14356.645508
1286.825838	0.085708	0.368524	14433.611328
1287.872881	1.097062	0.370079	521.104309
1287.873834	1.554613	0.370079	2002.650391
1287.874770	1.542389	0.370079	3446.326416
1287.875661	1.505002	0.370079	4787.283691
1287.876631	1.464192	0.370079	6207.549805
1287.877570	1.425256	0.370079	7545.865234
1287.878481	1.388661	0.370079	8810.935547
1287.879408	1.353992	0.370079	10066.085937
1287.880356	1.319334	0.370079	11316.814453
1287.881297	1.285448	0.370079	12526.420898
1287.882204	1.143461	0.370079	13563.540039
1287.883174	0.169720	0.370079	13728.168945
1287.884132	0.085605	0.370079	13810.178711
1287.885038	0.085715	0.370079	13887.836914
1287.885966	0.085737	0.370079	13967.401367
1287.886915	0.085653	0.370079	14048.686523
1287.887861	0.085723	0.370079	14129.780273
1287.888752	0.085741	0.370079	14206.175781
1287.889675	0.085748	0.370079	14285.321289
1287.890630	0.085708	0.370079	14367.172852
1287.891558	0.085741	0.370079	14446.740234
1288.895573	1.064286	0.377882	470.414368
1288.896479	1.551566	0.377882	1876.133301
1288.897374	1.546483	0.377882	3260.235840
1288.898371	1.505544	0.377882	4761.263672
1288.899287	1.465946	0.377882	6104.070312
1288.900220	1.428259	0.377882	7436.636230
1288.901120	1.391543	0.377882	8689.025391
1288.902089	1.355222	0.377882	10002.235352
1288.903008	1.321241	0.377882	11216.456055
1288.903919	1.288751	0.377882	12390.508789
1288.904880	1.164737	0.377882	13509.821289
1288.905819	0.198186	0.377882	13695.917969
1288.906744	0.085682	0.377882	13775.173828
1288.907642	0.085704	0.377882	13852.136719
1288.908626	0.085701	0.377882	13936.465820
1288.909559	0.085774	0.377882	14016.493164
1288.910452	0.085730	0.377882	14093.049805
1288.911389	0.085679	0.377882	14173.331055
1288.912328	0.085748	0.377882	14253.848633
1288.913265	0.085759	0.377882	14334.205078
1288.914152	0.085767	0.377882	14410.280273
1289.962568	1.055782	0.371489	456.098022
1289.963515	1.550248	0.371489	1924.182617
1289.964451	1.543740	0.371489	3369.123535
1289.965377	1.505314	0.371489	4763.043945
1289.966283	1.466704	0.371489	6091.877930
1289.967262	1.426630	0.371489	7488.548340
1289.968183	1.389536	0.371489	8768.311523
1289.969090	1.355299	0.371489	9997.568359
1289.969984	1.321630	0.371489	11179.105469
1289.970971	1.287250	0.371489	12449.621094
1289.971880	1.192489	0.371489	13533.593750
1289.972770	0.226311	0.371489	13735.010742
1289.973730	0.085785	0.371489	13817.364258
1289.974668	0.085726	0.371489	13897.775391
1289.975580	0.085745	0.371489	13975.974609
1289.976472	0.085741	0.371489	14052.455078
1289.977435	0.085693	0.371489	14134.977539
1289.978356	0.085756	0.371489	14213.958008
1289.979249	0.085833	0.371489	14290.606445
1289.980166	0.085792	0.371489	14369.278320
1289.981125	0.085730	0.371489	14451.493164
1290.984907	1.064099	0.371099	465.011292
1290.985850	1.551716	0.371099	1928.279785
1290.986816	1.542239	0.371099	3418.082520
1290.987754	1.503673	0.371099	4828.527832
1290.988650	1.465023	0.371099	6141.188477
1290.989622	1.425516	0.371099	7526.790527
1290.990582	1.387269	0.371099	8858.569336
1290.991498	1.352384	0.371099	10097.353516
1290.992435	1.318751	0.371099	11333.023437
1290.993389	1.284276	0.371099	12558.222656
1290.994323	1.109725	0.371099	13594.706055
1290.995213	0.169050	0.371099	13745.161133
1290.996162	0.085748	0.371099	13826.536133
1290.997117	0.085752	0.371099	13908.429687
1290.998023	0.085785	0.371099	13986.150391
1290.998946	0.085785	0.371099	14065.330078
1290.999896	0.085829	0.371099	14146.867187
1291.000825	0.085778	0.371099	14226.554687
1291.001726	0.085796	0.371099	14303.856445
1291.002658	0.085715	0.371099	14383.743164
1291.003619	0.085756	0.371099	14466.154297
1292.051837	1.087035	0.371111	513.080505
1292.052755	1.553324	0.371111	1939.031738
1292.053689	1.542675	0.371111	3379.889648
1292.054601	1.504570	0.371111	4752.057617
1292.055564	1.463774	0.371111	6161.672363
1292.056508	1.424798	0.371111	7506.682129
1292.057437	1.387613	0.371111	8795.775391
1292.058345	1.353058	0.371111	10024.351562
1292.059307	1.317920	0.371111	11292.190430
1292.060263	1.283774	0.371111	12519.478516
1292.061164	1.149745	0.371111	13555.398437
1292.062099	0.178729	0.371111	13722.510742
1292.063055	0.085660	0.371111	13804.402344
1292.063968	0.085668	0.371111	13882.617187
1292.064869	0.085638	0.371111	13959.777344
1292.065832	0.085730	0.371111	14042.334961
1292.066783	0.085594	0.371111	14123.735352
1292.067690	0.085814	0.371111	14201.568359
1292.068616	0.085679	0.371111	14280.907227
1292.069566	0.085682	0.371111	14362.305664
1292.070497	0.085752	0.371111	14442.140625
1293.074130	1.070449	0.374382	469.927216
1293.075045	1.549830	0.374382	1888.021973
1293.075944	1.544037	0.374382	3276.111084
1293.076910	1.504603	0.374382	4729.557617
1293.077843	1.464602	0.374382	6096.031250
1293.078758	1.426974	0.374382	7401.712402
1293.079651	1.390287	0.374382	8643.238281
1293.080648	1.353362	0.374382	9992.540039
1293.081559	1.320505	0.374382	11195.520508
1293.082456	1.288026	0.374382	12350.879883
1293.083432	1.196041	0.374382	13518.215820
1293.084359	0.213344	0.374382	13715.985352
1293.085264	0.085690	0.374382	13793.534180
1293.086158	0.085686	0.374382	13870.137695
1293.087124	0.085704	0.374382	13952.927734
1293.088042	0.085653	0.374382	14031.557617
1293.088939	0.085745	0.374382	14108.470703
1293.089876	0.085668	0.374382	14188.741211
1293.090813	0.085671	0.374382	14269.015625
1293.091727	0.085730	0.374382	14347.373047
1293.092621	0.085756	0.374382	14424.038086
1294.140776	1.104657	0.371538	513.665527
1294.141685	1.550596	0.371538	1923.156982
1294.142651	1.540869	0.371538	3411.636719
1294.143585	1.502274	0.371538	4814.760742
1294.144514	1.462584	0.371538	6173.501465
1294.145425	1.425304	0.371538	7471.953125
1294.146400	1.387189	0.371538	8824.461914
1294.147318	1.352007	0.371538	10065.604492
1294.148231	1.319015	0.371538	11269.865234
1294.149122	1.286041	0.371538	12415.728516
1294.150078	1.165356	0.371538	13529.809570
1294.151010	0.191418	0.371538	13708.211914
1294.151919	0.085697	0.371538	13786.110352
1294.152881	0.085723	0.371538	13868.575195
1294.153806	0.085715	0.371538	13947.862305
1294.154720	0.085737	0.371538	14026.226562
1294.155608	0.085792	0.371538	14102.410156
1294.156585	0.085763	0.371538	14186.200195
1294.157505	0.085818	0.371538	14265.152344
1294.158405	0.085774	0.371538	14342.348633
1294.159340	0.085719	0.371538	14422.496094
1295.164041	1.097556	0.369362	546.582947
1295.164968	1.552844	0.369362	1986.069580
1295.165909	1.540529	0.369362	3435.707031
1295.166806	1.503190	0.369362	4784.068359
1295.167786	1.461321	0.369362	6216.162598
1295.168722	1.422883	0.369362	7547.981445
1295.169655	1.386021	0.369362	8841.138672
1295.170559	1.351165	0.369362	10062.591797
1295.171539	1.315902	0.369362	11352.175781
1295.172457	1.282639	0.369362	12529.638672
1295.173370	1.126084	0.369362	13557.752930
1295.174310	0.163682	0.369362	13711.613281
1295.175254	0.085605	0.369362	13792.424805
1295.176182	0.085671	0.369362	13871.927734
1295.177072	0.085756	0.369362	13948.250000
1295.178044	0.085660	0.369362	14031.511719
1295.178992	0.085726	0.369362	14112.780273
1295.179899	0.085825	0.369362	14190.624023
1295.180824	0.085737	0.369362	14269.930664
1295.181787	0.085789	0.369362	14352.544922
1295.182713	0.085748	0.369362	14431.948242
1296.229197	1.058774	0.374309	459.508118
1296.230157	1.548724	0.374309	1946.283447
1296.231080	1.541049	0.374309	3368.671387
1296.232006	1.503003	0.374309	4760.452148
1296.232909	1.464426	0.374309	6082.829102
1296.233871	1.425146	0.374309	7453.819824
1296.234796	1.388350	0.374309	8738.042969
1296.235704	1.353783	0.374309	9967.278320
1296.236640	1.320062	0.374309	11202.856445
1296.237593	1.285499	0.374309	12427.937500
1296.238502	1.190259	0.374309	13509.882812
1296.239400	0.224663	0.374309	13711.629883
1296.240375	0.085679	0.374309	13795.166992
1296.241283	0.085646	0.374309	13872.933594
1296.242199	0.085745	0.374309	13951.475586
1296.243101	0.085690	0.374309	14028.767578
1296.244077	0.085759	0.374309	14112.468750
1296.244990	0.085712	0.374309	14190.723633
1296.245923	0.085730	0.374309	14270.709961
1296.246816	0.085745	0.374309	14347.280273
1296.247801	0.085745	0.374309	14431.738281
1297.253464	1.077997	0.371574	479.708588
1297.254365	1.548882	0.371574	1875.251221
1297.255260	1.543802	0.371574	3256.954590
1297.256247	1.503589	0.371574	4740.996582
1297.257179	1.463807	0.371574	6105.265137
1297.258097	1.426003	0.371574	7414.336426
1297.259041	1.389115	0.371574	8725.661133
1297.259982	1.352838	0.371574	9998.681641
1297.260883	1.320004	0.371574	11188.004883
1297.261785	1.287513	0.371574	12349.341797
1297.262768	1.191028	0.371574	13520.122070
1297.263677	0.212758	0.371574	13713.518555
1297.264588	0.085822	0.371574	13791.702148
1297.265482	0.085660	0.371574	13868.282227
1297.266467	0.085719	0.371574	13952.715820
1297.267395	0.085745	0.371574	14032.287109
1297.268300	0.085814	0.371574	14109.949219
1297.269259	0.085822	0.371574	14192.251953
1297.270184	0.085763	0.371574	14271.583008
1297.271103	0.085759	0.371574	14350.395508
1297.271995	0.085763	0.371574	14426.896484
1298.318032	1.072189	0.366208	473.907410
1298.319006	1.550647	0.366208	1984.237549
1298.319944	1.539562	0.366208	3428.346436
1298.320858	1.501901	0.366208	4801.083496
1298.321792	1.462932	0.366208	6167.461914
1298.322753	1.423696	0.366208	7535.633789
1298.323686	1.386258	0.366208	8829.012695
1298.324583	1.352249	0.366208	10041.979492
1298.325546	1.317924	0.366208	11311.139648
1298.326494	1.283903	0.366208	12528.279297
1298.327405	1.139114	0.366208	13566.011719
1298.328329	0.180198	0.366208	13732.514648
1298.329261	0.085675	0.366208	13812.364258
1298.330226	0.085653	0.366208	13895.019531
1298.331129	0.085741	0.366208	13972.443359
1298.332055	0.085697	0.366208	14051.798828
1298.333016	0.085712	0.366208	14134.167969
1298.333951	0.085730	0.366208	14214.325195
1298.334839	0.085660	0.366208	14290.391602
1298.335804	0.085660	0.366208	14373.053711
1298.336752	0.085686	0.366208	14454.284180
1299.343622	1.104661	0.367880	544.597717
1299.344548	1.552419	0.367880	1982.138184
1299.345483	1.540236	0.367880	3422.258545
1299.346390	1.502629	0.367880	4785.143555
1299.347366	1.461292	0.367880	6211.364258
1299.348316	1.422067	0.367880	7562.327637
1299.349251	1.385182	0.367880	8857.472656
1299.350149	1.350256	0.367880	10070.002930
1299.351139	1.315188	0.367880	11372.039062
1299.352080	1.281493	0.367880	12577.923828
1299.352980	1.106601	0.367880	13573.865234
1299.353913	0.160510	0.367880	13723.621094
1299.354861	0.085591	0.367880	13804.760742
1299.355776	0.085668	0.367880	13883.146484
1299.356672	0.085664	0.367880	13959.901367
1299.357626	0.085671	0.367880	14041.631836
1299.358572	0.085763	0.367880	14122.763672
1299.359477	0.085752	0.367880	14200.369141
1299.360402	0.085657	0.367880	14279.601562
1299.361361	0.085704	0.367880	14361.791992
1299.362287	0.085686	0.367880	14441.137695
1300.406688	1.151481	0.367981	591.861084
1300.407602	1.553207	0.367981	2011.492065
1300.408528	1.540067	0.367981	3437.594238
1300.409429	1.502054	0.367981	4790.945312
1300.410418	1.460903	0.367981	6235.778809
1300.411339	1.423271	0.367981	7546.611816
1300.412241	1.387269	0.367981	8797.928711
1300.413201	1.351300	0.367981	10095.176758
1300.414132	1.317096	0.367981	11321.393555
1300.415065	1.283954	0.367981	12519.322266
1300.415961	1.128329	0.367981	13530.304687
1300.416954	0.157240	0.367981	13686.444336
1300.417858	0.085602	0.367981	13763.828125
1300.418752	0.085759	0.367981	13840.497070
1300.419727	0.085781	0.367981	13924.133789
1300.420634	0.085664	0.367981	14001.831055
1300.421555	0.085719	0.367981	14080.778320
1300.422459	0.085730	0.367981	14158.278320
1300.423422	0.085800	0.367981	14240.903320
1300.424339	0.085701	0.367981	14319.491211
1300.425271	0.085818	0.367981	14399.473633
1301.433427	1.075682	0.361801	475.451569
1301.434372	1.548428	0.361801	1938.715820
1301.435332	1.538822	0.361801	3415.984863
1301.436283	1.497404	0.361801	4840.015625
1301.437183	1.458790	0.361801	6152.926758
1301.438118	1.420664	0.361801	7481.247559
1301.439076	1.383863	0.361801	8806.988281
1301.440019	1.348004	0.361801	10078.156250
1301.440933	1.315023	0.361801	11280.087891
1301.441901	1.281105	0.361801	12520.197266
1301.442827	1.112076	0.361801	13549.980469
1301.443752	0.159437	0.361801	13697.459961
1301.444662	0.085616	0.361801	13775.371094
1301.445614	0.085712	0.361801	13856.968750
1301.446533	0.085741	0.361801	13935.764648
1301.447439	0.085719	0.361801	14013.425781
1301.448328	0.085818	0.361801	14089.717773
1301.449320	0.085715	0.361801	14174.747070
1301.450244	0.085675	0.361801	14253.911133
1301.451140	0.085704	0.361801	14330.702148
1301.452091	0.085796	0.361801	14412.293945
1302.495197	1.082981	0.369145	488.424438
1302.496090	1.545751	0.369145	1868.779907
1302.497084	1.537288	0.369145	3396.843750
1302.498026	1.499297	0.369145	4809.181641
1302.498927	1.461248	0.369145	6125.765625
1302.499881	1.422517	0.369145	7482.846680
1302.500845	1.383805	0.369145	8816.834961
1302.501763	1.348850	0.369145	10055.079102
1302.502675	1.316283	0.369145	11255.529297
1302.503622	1.282163	0.369145	12469.738281
1302.504579	1.101185	0.369145	13523.572266
1302.505512	0.160276	0.369145	13673.109375
1302.506408	0.085657	0.369145	13749.857422
1302.507370	0.085745	0.369145	13832.343750
1302.508326	0.085734	0.369145	13914.304687
1302.509230	0.085690	0.369145	13991.768555
1302.510159	0.085726	0.369145	14071.408203
1302.511117	0.085752	0.369145	14153.558594
1302.512043	0.085763	0.369145	14232.974609
1302.512931	0.085697	0.369145	14309.073242
1302.513879	0.085723	0.369145	14390.337891
1303.522935	1.117753	0.360262	532.050293
1303.523853	1.549969	0.360262	1954.922241
1303.524756	1.540327	0.360262	3345.837646
1303.525713	1.501417	0.360262	4782.693848
1303.526645	1.461383	0.360262	6144.702637
1303.527551	1.424055	0.360262	7434.896484
1303.528445	1.388203	0.360262	8675.950195
1303.529434	1.351381	0.360262	10012.465820
1303.530346	1.318147	0.360262	11214.616211
1303.531270	1.284866	0.360262	12401.832031
1303.532181	1.190175	0.360262	13486.081055
1303.533154	0.190862	0.360262	13671.790039
1303.534069	0.085609	0.360262	13750.122070
1303.534961	0.085770	0.360262	13826.628906
1303.535883	0.085770	0.360262	13905.708984
1303.536853	0.085759	0.360262	13988.895508
1303.537762	0.085679	0.360262	14066.777344
1303.538657	0.085767	0.360262	14143.538086
1303.539626	0.085796	0.360262	14226.673828
1303.540543	0.085715	0.360262	14305.274414
1303.541473	0.085774	0.360262	14385.043945
1304.583885	1.064813	0.370575	467.453033
1304.584782	1.546772	0.370575	1854.907959
1304.585791	1.539250	0.370575	3408.011719
1304.586715	1.500308	0.370575	4794.295898
1304.587628	1.461595	0.370575	6128.732422
1304.588592	1.422773	0.370575	7500.286133
1304.589517	1.385581	0.370575	8781.948242
1304.590431	1.351095	0.370575	10016.848633
1304.591326	1.318231	0.370575	11196.666016
1304.592308	1.283467	0.370575	12457.030273
1304.593233	1.158918	0.370575	13529.030273
1304.594131	0.197937	0.370575	13706.777344
1304.595098	0.085708	0.370575	13789.657227
1304.596005	0.085734	0.370575	13867.417969
1304.596926	0.085671	0.370575	13946.321289
1304.597827	0.085781	0.370575	14023.610352
1304.598764	0.085726	0.370575	14103.935547
1304.599701	0.085730	0.370575	14184.264648
1304.600618	0.085690	0.370575	14262.841797
1304.601510	0.085759	0.370575	14339.338867
1304.602496	0.085785	0.370575	14423.922852
1305.612245	1.068604	0.365765	469.116943
1305.613150	1.547582	0.365765	1869.678467
1305.614089	1.540865	0.365765	3316.551270
1305.615061	1.501201	0.365765	4775.718750
1305.615992	1.460988	0.365765	6135.898437
1305.616890	1.423813	0.365765	7414.482910
1305.617865	1.385603	0.365765	8765.446289
1305.618836	1.349088	0.365765	10075.411133
1305.619748	1.315964	0.365765	11275.570312
1305.620673	1.283134	0.365765	12462.468750
1305.621633	1.126904	0.365765	13544.296875
1305.622568	0.165645	0.365765	13699.174805
1305.623455	0.085594	0.365765	13775.096680
1305.624384	0.085679	0.365765	13854.692383
1305.625333	0.085745	0.365765	13936.064453
1305.626260	0.085752	0.365765	14015.556641
1305.627150	0.085624	0.365765	14091.761719
1305.628110	0.085748	0.365765	14174.080078
1305.629067	0.085664	0.365765	14256.060547
1305.629976	0.085789	0.365765	14334.041992
1305.630905	0.085756	0.365765	14413.708984
1306.673048	1.136803	0.368694	582.043152
1306.673974	1.551427	0.368694	2018.664551
1306.674907	1.537068	0.368694	3452.749023
1306.675813	1.498729	0.368694	4810.597656
1306.676798	1.457673	0.368694	6246.405762
1306.677738	1.419496	0.368694	7580.731934
1306.678642	1.383834	0.368694	8831.717773
1306.679587	1.349180	0.368694	10106.692383
1306.680517	1.315155	0.368694	11329.787109
1306.681451	1.281585	0.368694	12526.787109
1306.682348	1.132328	0.368694	13542.485352
1306.683319	0.157548	0.368694	13695.463867
1306.684272	0.085569	0.368694	13777.010742
1306.685182	0.085631	0.368694	13854.934570
1306.686080	0.085613	0.368694	13931.814453
1306.687051	0.085682	0.368694	14015.011719
1306.688005	0.085745	0.368694	14096.812500
1306.688911	0.085701	0.368694	14174.457031
1306.689835	0.085690	0.368694	14253.634766
1306.690795	0.085693	0.368694	14335.900391
1306.691723	0.085770	0.368694	14415.495117
1307.701768	1.123004	0.363010	550.272034
1307.702703	1.550178	0.363010	1999.688721
1307.703609	1.537427	0.363010	3392.597168
1307.704512	1.498096	0.363010	4745.377441
1307.705502	1.457186	0.363010	6187.992187
1307.706430	1.418785	0.363010	7504.625000
1307.707340	1.382684	0.363010	8762.867187
1307.708299	1.346671	0.363010	10054.325195
1307.709224	1.312214	0.363010	11268.123047
1307.710138	1.279512	0.363010	12437.596680
1307.711035	1.129596	0.363010	13450.843750
1307.712029	0.166699	0.363010	13616.542969
1307.712948	0.085649	0.363010	13695.254883
1307.713844	0.085726	0.363010	13772.065430
1307.714808	0.085767	0.363010	13854.744141
1307.715716	0.085756	0.363010	13932.610352
1307.716620	0.085697	0.363010	14010.080078
1307.717511	0.085741	0.363010	14086.475586
1307.718486	0.085693	0.363010	14170.026367
1307.719417	0.085770	0.363010	14249.878906
1307.720327	0.085789	0.363010	14327.946289
1308.762066	1.068395	0.370321	472.230499
1308.762959	1.542971	0.370321	1850.103638
1308.763953	1.535786	0.370321	3376.675049
1308.764909	1.497415	0.370321	4808.203125
1308.765820	1.458794	0.370321	6137.164551
1308.766747	1.421525	0.370321	7454.917969
1308.767710	1.384255	0.370321	8787.956055
1308.768661	1.348879	0.370321	10070.740234
1308.769576	1.315785	0.370321	11274.683594
1308.770516	1.282537	0.370321	12480.267578
1308.771474	1.097065	0.370321	13531.255859
1308.772416	0.155424	0.370321	13677.665039
1308.773304	0.085624	0.370321	13753.699219
1308.774253	0.085675	0.370321	13835.004883
1308.775206	0.085748	0.370321	13916.722656
1308.776114	0.085854	0.370321	13994.678711
1308.777041	0.085741	0.370321	14074.160156
1308.777982	0.085741	0.370321	14154.842773
1308.778926	0.085767	0.370321	14235.806641
1308.779836	0.085778	0.370321	14313.864258
1308.780774	0.085690	0.370321	14394.241211
1309.790821	1.073097	0.365773	486.112885
1309.791715	1.547340	0.365773	1869.434937
1309.792683	1.539895	0.365773	3360.053223
1309.793606	1.502432	0.365773	4746.797852
1309.794534	1.463533	0.365773	6104.956055
1309.795441	1.425780	0.365773	7398.138672
1309.796426	1.387017	0.365773	8764.349609
1309.797362	1.351846	0.365773	10029.677734
1309.798262	1.319018	0.365773	11216.793945
1309.799212	1.285796	0.365773	12438.299805
1309.800155	1.144197	0.365773	13517.277344
1309.801092	0.183442	0.365773	13689.163086
1309.801980	0.085774	0.365773	13765.330078
1309.802939	0.085712	0.365773	13847.527344
1309.803888	0.085712	0.365773	13928.868164
1309.804808	0.085701	0.365773	14007.712891
1309.805706	0.085701	0.365773	14084.671875
1309.806686	0.085675	0.365773	14168.633789
1309.807613	0.085682	0.365773	14248.061523
1309.808524	0.085770	0.365773	14326.198242
1309.809449	0.085701	0.365773	14405.471680
1310.851468	1.093704	0.368976	550.132935
1310.852404	1.553002	0.368976	2003.742554
1310.853328	1.538602	0.368976	3425.411133
1310.854225	1.501110	0.368976	4771.906250
1310.855207	1.459728	0.368976	6205.358887
1310.856149	1.421093	0.368976	7544.028320
1310.857065	1.385098	0.368976	8812.777344
1310.857976	1.350146	0.368976	10042.760742
1310.858956	1.315162	0.368976	11331.620117
1310.859872	1.282240	0.368976	12506.152344
1310.860770	1.147203	0.368976	13536.340820
1310.861736	0.173851	0.368976	13704.281250
1310.862664	0.085602	0.368976	13783.719727
1310.863564	0.085734	0.368976	13860.879883
1310.864460	0.085708	0.368976	13937.673828
1310.865428	0.085701	0.368976	14020.631836
1310.866341	0.085646	0.368976	14098.826172
1310.867263	0.085686	0.368976	14177.829102
1310.868160	0.085748	0.368976	14254.745117
1310.869149	0.085741	0.368976	14339.542969
1310.870057	0.085664	0.368976	14417.326172
1311.879930	1.084036	0.365104	524.673218
1311.880874	1.551519	0.365104	1989.306763
1311.881807	1.538291	0.365104	3424.532227
1311.882717	1.500531	0.365104	4790.015625
1311.883642	1.461848	0.365104	6142.225098
1311.884593	1.422993	0.365104	7495.491699
1311.885540	1.385358	0.365104	8807.425781
1311.886451	1.350937	0.365104	10038.129883
1311.887393	1.316675	0.365104	11278.437500
1311.888364	1.282196	0.365104	12523.450195
1311.889296	1.110831	0.365104	13558.745117
1311.890188	0.169354	0.365104	13709.809570
1311.891149	0.085580	0.365104	13792.051758
1311.892087	0.085642	0.365104	13872.383789
1311.892992	0.085800	0.365104	13950.032227
1311.893918	0.085759	0.365104	14029.445312
1311.894879	0.085686	0.365104	14111.790039
1311.895810	0.085770	0.365104	14191.642578
1311.896709	0.085668	0.365104	14268.658203
1311.897659	0.085627	0.365104	14350.003906
1311.898622	0.085734	0.365104	14432.565430
1312.941040	1.099131	0.366579	513.294128
1312.941939	1.549757	0.366579	1906.525879
1312.942889	1.540126	0.366579	3369.645264
1312.943858	1.500308	0.366579	4823.443359
1312.944799	1.460574	0.366579	6197.843262
1312.945690	1.423411	0.366579	7466.102051
1312.946644	1.385867	0.366579	8788.218750
1312.947607	1.349993	0.366579	10088.261719
1312.948518	1.316627	0.366579	11287.708984
1312.949451	1.283514	0.366579	12485.227539
1312.950412	1.107001	0.366579	13549.054687
1312.951351	0.155812	0.366579	13695.362305
1312.952241	0.085649	0.366579	13771.589844
1312.953210	0.085756	0.366579	13854.687500
1312.954165	0.085748	0.366579	13936.577148
1312.955070	0.085800	0.366579	14014.225586
1312.955995	0.085675	0.366579	14093.474609
1312.956931	0.085653	0.366579	14173.645508
1312.957861	0.085734	0.366579	14253.377930
1312.958758	0.085778	0.366579	14330.320312
1312.959678	0.085778	0.366579	14409.235352
1313.968737	1.088024	0.365769	489.610687
1313.969647	1.549644	0.365769	1899.786377
1313.970594	1.540920	0.365769	3359.038086
1313.971491	1.503069	0.365769	4707.291016
1313.972482	1.461760	0.365769	6155.895508
1313.973390	1.424875	0.365769	7449.682617
1313.974284	1.389284	0.365769	8691.702148
1313.975266	1.352754	0.365769	10020.106445
1313.976167	1.319165	0.365769	11208.673828
1313.977097	1.286063	0.365769	12404.712891
1313.978004	1.164261	0.365769	13460.698242
1313.978990	0.189393	0.365769	13647.440430
1313.979901	0.085638	0.365769	13725.457031
1313.980796	0.085657	0.365769	13802.120117
1313.981756	0.085737	0.365769	13884.427734
1313.982682	0.085690	0.365769	13963.776367
1313.983616	0.085745	0.365769	14043.862305
1313.984507	0.085723	0.365769	14120.241211
1313.985508	0.085741	0.365769	14206.068359
1313.986409	0.085756	0.365769	14283.333984
1313.987304	0.085829	0.365769	14360.150391
1315.030935	1.143519	0.367618	586.625366
1315.031853	1.553141	0.367618	2012.408691
1315.032771	1.539983	0.367618	3426.113037
1315.033666	1.502161	0.367618	4770.546875
1315.034657	1.460922	0.367618	6218.320312
1315.035582	1.423114	0.367618	7534.700684
1315.036496	1.386881	0.367618	8802.310547
1315.037446	1.351685	0.367618	10086.411133
1315.038368	1.317598	0.367618	11301.236328
1315.039283	1.284686	0.367618	12476.724609
1315.040178	1.163002	0.367618	13517.611328
1315.041156	0.177601	0.367618	13691.305664
1315.042074	0.085646	0.367618	13769.928711
1315.042963	0.085701	0.367618	13846.116211
1315.043898	0.085679	0.367618	13926.225586
1315.044831	0.085723	0.367618	14006.205078
1315.045751	0.085653	0.367618	14085.005859
1315.046656	0.085690	0.367618	14162.554687
1315.047607	0.085660	0.367618	14244.017578
1315.048533	0.085715	0.367618	14323.389648
1315.049440	0.085682	0.367618	14401.103516
1316.057451	1.095809	0.361104	499.689056
1316.058354	1.550464	0.361104	1899.758057
1316.059292	1.540964	0.361104	3345.182617
1316.060263	1.501293	0.361104	4802.937988
1316.061198	1.461907	0.361104	6169.820801
1316.062109	1.424106	0.361104	7467.181641
1316.063082	1.385980	0.361104	8815.740234
1316.064045	1.350000	0.361104	10115.790039
1316.064955	1.316949	0.361104	11314.213867
1316.065888	1.283452	0.361104	12511.674805
1316.066856	1.085830	0.361104	13562.757812
1316.067800	0.148759	0.361104	13703.185547
1316.068690	0.085660	0.361104	13779.422852
1316.069646	0.085781	0.361104	13861.429687
1316.070595	0.085774	0.361104	13942.829102
1316.071496	0.085778	0.361104	14020.114258
1316.072414	0.085767	0.361104	14098.847656
1316.073369	0.085759	0.361104	14180.748047
1316.074306	0.085825	0.361104	14261.166016
1316.075208	0.085756	0.361104	14338.517578
1316.076134	0.085767	0.361104	14417.937500
1317.120586	1.067245	0.363477	466.386017
1317.121566	1.551405	0.363477	1986.762817
1317.122484	1.540492	0.363477	3400.934570
1317.123422	1.502230	0.363477	4810.026367
1317.124316	1.463624	0.363477	6118.506348
1317.125295	1.424158	0.363477	7512.756836
1317.126206	1.388156	0.363477	8777.366211
1317.127105	1.353622	0.363477	9994.272461
1317.128068	1.319227	0.363477	11264.688477
1317.128993	1.285415	0.363477	12453.697266
1317.129928	1.160929	0.363477	13539.166016
1317.130836	0.198329	0.363477	13719.249023
1317.131816	0.085660	0.363477	13803.196289
1317.132729	0.085697	0.363477	13881.437500
1317.133626	0.085811	0.363477	13958.409180
1317.134566	0.085734	0.363477	14038.999023
1317.135523	0.085792	0.363477	14121.102539
1317.136427	0.085693	0.363477	14198.569336
1317.137322	0.085785	0.363477	14275.346680
1317.138295	0.085734	0.363477	14358.765625
1317.139194	0.085741	0.363477	14435.846680
1318.145872	1.072379	0.362490	476.136322
1318.146765	1.548820	0.362490	1859.232178
1318.147787	1.540723	0.362490	3433.850586
1318.148713	1.501912	0.362490	4824.620605
1318.149612	1.463372	0.362490	6140.191406
1318.150569	1.424348	0.362490	7503.292480
1318.151503	1.386987	0.362490	8798.738281
1318.152423	1.352428	0.362490	10042.971680
1318.153316	1.319128	0.362490	11220.953125
1318.154310	1.284115	0.362490	12497.363281
1318.155240	1.138748	0.362490	13556.398437
1318.156155	0.177220	0.362490	13718.554687
1318.157093	0.085704	0.362490	13798.945312
1318.158002	0.085631	0.362490	13876.784180
1318.158905	0.085627	0.362490	13954.105469
1318.159791	0.085756	0.362490	14030.084961
1318.160762	0.085675	0.362490	14113.275391
1318.161671	0.085745	0.362490	14191.216797
1318.162579	0.085737	0.362490	14269.066406
1318.163483	0.085745	0.362490	14346.579102
1318.164460	0.085840	0.362490	14430.444336
1319.210357	1.078407	0.361551	507.929718
1319.211268	1.552167	0.361551	1921.953491
1319.212203	1.542147	0.361551	3363.861084
1319.213150	1.502150	0.361551	4786.396973
1319.214105	1.461625	0.361551	6182.248535
1319.215020	1.424440	0.361551	7485.610840
1319.215948	1.387222	0.361551	8772.952148
1319.216905	1.351318	0.361551	10066.164062
1319.217838	1.317685	0.361551	11295.564453
1319.218731	1.284979	0.361551	12443.050781
1319.219701	1.117676	0.361551	13527.196289
1319.220664	0.164890	0.361551	13685.985352
1319.221557	0.085613	0.361551	13762.437500
1319.222477	0.085594	0.361551	13841.184570
1319.223434	0.085653	0.361551	13923.154297
1319.224360	0.085668	0.361551	14002.482422
1319.225259	0.085690	0.361551	14079.517578
1319.226221	0.085657	0.361551	14161.918945
1319.227173	0.085693	0.361551	14243.499023
1319.228081	0.085642	0.361551	14321.261719
1319.228990	0.085649	0.361551	14399.117187
1320.234706	1.067490	0.368367	468.628204
1320.235614	1.549918	0.368367	1875.953857
1320.236517	1.544674	0.368367	3270.794434
1320.237489	1.505010	0.368367	4733.664062
1320.238425	1.464763	0.368367	6104.682617
1320.239340	1.427380	0.368367	7410.735840
1320.240234	1.390796	0.368367	8654.107422
1320.241230	1.353761	0.368367	10002.453125
1320.242141	1.320729	0.368367	11205.636719
1320.243039	1.288451	0.368367	12362.666016
1320.244027	1.184846	0.368367	13533.293945
1320.244953	0.206682	0.368367	13724.681641
1320.245851	0.085580	0.368367	13801.532227
1320.246742	0.085605	0.368367	13877.806641
1320.247702	0.085734	0.368367	13960.111328
1320.248615	0.085671	0.368367	14038.329102
1320.249510	0.085774	0.368367	14115.096680
1320.250427	0.085737	0.368367	14193.717773
1320.251379	0.085741	0.368367	14275.342773
1320.252292	0.085660	0.368367	14353.550781
1320.253184	0.085741	0.368367	14430.031250
1321.299789	1.077008	0.367618	472.806519
1321.300788	1.553815	0.367618	2025.067505
1321.301732	1.540060	0.367618	3478.883789
1321.302629	1.502102	0.367618	4826.269531
1321.303587	1.461222	0.367618	6226.120117
1321.304524	1.422975	0.367618	7559.447266
1321.305441	1.386834	0.367618	8831.173828
1321.306336	1.352399	0.367618	10041.570312
1321.307327	1.316946	0.367618	11346.664062
1321.308264	1.283448	0.367618	12549.254883
1321.309177	1.130530	0.367618	13581.428711
1321.310122	0.172068	0.367618	13744.033203
1321.311045	0.085704	0.367618	13823.138672
1321.311940	0.085726	0.367618	13899.863281
1321.312825	0.085796	0.367618	13975.792969
1321.313833	0.085741	0.367618	14062.219727
1321.314743	0.085752	0.367618	14140.253906
1321.315651	0.085803	0.367618	14218.163086
1321.316570	0.085693	0.367618	14296.915039
1321.317524	0.085785	0.367618	14378.753906
1321.318442	0.085800	0.367618	14457.517578
1322.323666	1.063041	0.367207	467.737915
1322.324560	1.548955	0.367207	1852.503784
1322.325542	1.542026	0.367207	3366.773682
1322.326480	1.502908	0.367207	4776.500977
1322.327383	1.464236	0.367207	6098.706055
1322.328313	1.426538	0.367207	7425.386719
1322.329266	1.388873	0.367207	8748.983398
1322.330218	1.352296	0.367207	10036.369141
1322.331109	1.319553	0.367207	11212.090820
1322.332043	1.285646	0.367207	12412.883789
1322.333004	1.149243	0.367207	13517.306641
1322.333932	0.188027	0.367207	13691.795898
1322.334822	0.085609	0.367207	13767.988281
1322.335786	0.085616	0.367207	13850.522461
1322.336740	0.085690	0.367207	13932.270508
1322.337648	0.085682	0.367207	14010.070312
1322.338581	0.085693	0.367207	14090.022461
1322.339540	0.085748	0.367207	14172.254883
1322.340473	0.085737	0.367207	14252.248047
1322.341363	0.085664	0.367207	14328.489258
1322.342330	0.085664	0.367207	14411.326172
1323.389519	1.069416	0.359143	470.543213
1323.390411	1.548311	0.359143	1851.636230
1323.391440	1.539782	0.359143	3436.071289
1323.392359	1.501234	0.359143	4815.705566
1323.393263	1.462969	0.359143	6138.229492
1323.394240	1.423788	0.359143	7529.270508
1323.395160	1.386643	0.359143	8804.982422
1323.396098	1.351523	0.359143	10072.710937
1323.396992	1.318649	0.359143	11251.583008
1323.397970	1.283683	0.359143	12507.024414
1323.398884	1.140256	0.359143	13549.218750
1323.399782	0.185098	0.359143	13715.436523
1323.400741	0.085748	0.359143	13797.668945
1323.401660	0.085668	0.359143	13876.397461
1323.402587	0.085726	0.359143	13955.866211
1323.403483	0.085792	0.359143	14032.736328
1323.404461	0.085715	0.359143	14116.566406
1323.405378	0.085719	0.359143	14195.170898
1323.406316	0.085759	0.359143	14275.613281
1323.407215	0.085679	0.359143	14352.638672
1323.408196	0.085616	0.359143	14436.627930
1324.412106	1.061821	0.368118	461.892273
1324.413066	1.548402	0.368118	1948.358154
1324.413999	1.540975	0.368118	3386.088135
1324.414912	1.503094	0.368118	4758.413086
1324.415806	1.464719	0.368118	6067.872070
1324.416794	1.424762	0.368118	7475.537109
1324.417714	1.388218	0.368118	8752.697266
1324.418622	1.353428	0.368118	9981.609375
1324.419537	1.320135	0.368118	11189.533203
1324.420507	1.285953	0.368118	12436.908203
1324.421421	1.177749	0.368118	13513.371094
1324.422325	0.213798	0.368118	13706.644531
1324.423271	0.085715	0.368118	13787.731445
1324.424197	0.085679	0.368118	13867.070312
1324.425106	0.085737	0.368118	13945.005859
1324.425992	0.085752	0.368118	14020.982422
1324.426978	0.085741	0.368118	14105.523437
1324.427895	0.085675	0.368118	14184.087891
1324.428797	0.085745	0.368118	14261.429687
1324.429753	0.085708	0.368118	14343.366211
1324.430666	0.085737	0.368118	14421.644531
1325.478629	1.099698	0.364927	505.861267
1325.479589	1.552994	0.364927	1996.735840
1325.480527	1.539448	0.364927	3440.738281
1325.481429	1.501414	0.364927	4795.013184
1325.482392	1.460804	0.364927	6201.767578
1325.483357	1.422103	0.364927	7574.097168
1325.484258	1.386152	0.364927	8823.020508
1325.485201	1.350670	0.364927	10096.702148
1325.486152	1.315829	0.364927	11348.055664
1325.487087	1.282632	0.364927	12547.316406
1325.487991	1.096194	0.364927	13538.275391
1325.488961	0.156010	0.364927	13689.604492
1325.489910	0.085682	0.364927	13770.916992
1325.490815	0.085719	0.364927	13848.492187
1325.491740	0.085723	0.364927	13927.785156
1325.492694	0.085649	0.364927	14009.495117
1325.493615	0.085697	0.364927	14088.421875
1325.494505	0.085763	0.364927	14164.750977
1325.495463	0.085785	0.364927	14246.932617
1325.496413	0.085701	0.364927	14328.348633
1325.497316	0.085737	0.364927	14405.769531
1326.501598	1.076276	0.370406	488.629181
1326.502494	1.549823	0.370406	1877.270508
1326.503462	1.541554	0.370406	3369.494629
1326.504397	1.502351	0.370406	4774.192871
1326.505314	1.463335	0.370406	6116.071289
1326.506214	1.426066	0.370406	7399.530273
1326.507203	1.387310	0.370406	8771.579102
1326.508124	1.352717	0.370406	10017.431641
1326.509025	1.319941	0.370406	11206.699219
1326.509984	1.286378	0.370406	12440.335937
1326.510912	1.177972	0.370406	13533.494141
1326.511808	0.211747	0.370406	13723.219727
1326.512696	0.085781	0.370406	13799.393555
1326.513677	0.085734	0.370406	13883.498047
1326.514587	0.085730	0.370406	13961.512695
1326.515494	0.085734	0.370406	14039.273437
1326.516385	0.085737	0.370406	14115.665039
1326.517374	0.085803	0.370406	14200.524414
1326.518296	0.085781	0.370406	14279.614258
1326.519226	0.085664	0.370406	14359.282227
1326.520112	0.085715	0.370406	14435.225586
1327.567585	1.092583	0.359944	500.403046
1327.568487	1.550112	0.359944	1898.604370
1327.569484	1.539811	0.359944	3433.795654
1327.570417	1.500293	0.359944	4833.568848
1327.571332	1.461317	0.359944	6170.673828
1327.572222	1.424520	0.359944	7438.497070
1327.573198	1.386010	0.359944	8791.242187
1327.574126	1.351128	0.359944	10045.088867
1327.575036	1.318099	0.359944	11244.559570
1327.575981	1.284708	0.359944	12458.609375
1327.576929	1.146526	0.359944	13545.515625
1327.577847	0.179656	0.359944	13710.439453
1327.578740	0.085649	0.359944	13786.924805
1327.579715	0.085796	0.359944	13870.576172
1327.580640	0.085730	0.359944	13949.875977
1327.581540	0.085774	0.359944	14027.072266
1327.582426	0.085789	0.359944	14103.081055
1327.583398	0.085774	0.359944	14186.453125
1327.584311	0.085745	0.359944	14264.738281
1327.585218	0.085792	0.359944	14342.551758
1327.586175	0.085690	0.359944	14424.556641
1328.591480	1.086064	0.368259	508.278168
1328.592407	1.550262	0.368259	1945.371460
1328.593311	1.540239	0.368259	3337.747803
1328.594240	1.502465	0.368259	4733.537109
1328.595200	1.461094	0.368259	6136.187012
1328.596153	1.422231	0.368259	7491.573730
1328.597063	1.386288	0.368259	8753.095703
1328.598003	1.350407	0.368259	10022.477539
1328.598965	1.315866	0.368259	11288.339844
1328.599889	1.283097	0.368259	12473.921875
1328.600783	1.151078	0.368259	13502.985352
1328.601751	0.182827	0.368259	13679.961914
1328.602692	0.085635	0.368259	13760.543945
1328.603599	0.085704	0.368259	13838.277344
1328.604522	0.085686	0.368259	13917.365234
1328.605472	0.085723	0.368259	13998.801758
1328.606397	0.085792	0.368259	14078.159180
1328.607298	0.085664	0.368259	14155.342773
1328.608260	0.085723	0.368259	14237.807617
1328.609216	0.085730	0.368259	14319.765625
1328.610125	0.085836	0.368259	14397.791016
1329.656140	1.067366	0.364359	468.573578
1329.657113	1.550775	0.364359	1977.477905
1329.658033	1.538134	0.364359	3392.560547
1329.658974	1.499502	0.364359	4803.591797
1329.659868	1.460753	0.364359	6109.504883
1329.660871	1.420986	0.364359	7534.753906
1329.661787	1.384764	0.364359	8803.198242
1329.662692	1.350557	0.364359	10025.452148
1329.663663	1.316268	0.364359	11303.548828
1329.664584	1.282723	0.364359	12484.937500
1329.665511	1.144109	0.364359	13545.526367
1329.666402	0.187738	0.364359	13712.800781
1329.667368	0.085584	0.364359	13795.474609
1329.668281	0.085693	0.364359	13873.712891
1329.669176	0.085763	0.364359	13950.470703
1329.670133	0.085745	0.364359	14032.528320
1329.671047	0.085679	0.364359	14110.838867
1329.671982	0.085704	0.364359	14190.972656
1329.672872	0.085726	0.364359	14267.269531
1329.673851	0.085741	0.364359	14351.209961
1329.674758	0.085708	0.364359	14428.947266
1330.681165	1.069039	0.367296	470.377319
1330.682133	1.549925	0.367296	1970.705200
1330.683089	1.537639	0.367296	3440.688232
1330.684021	1.499165	0.367296	4837.910156
1330.684915	1.461053	0.367296	6144.091797
1330.685880	1.422070	0.367296	7516.389648
1330.686830	1.384856	0.367296	8832.002930
1330.687741	1.350612	0.367296	10062.410156
1330.688676	1.316759	0.367296	11293.580078
1330.689639	1.282548	0.367296	12528.673828
1330.690571	1.111948	0.367296	13565.009766
1330.691472	0.166198	0.367296	13714.753906
1330.692430	0.085649	0.367296	13796.805664
1330.693381	0.085682	0.367296	13878.290039
1330.694289	0.085693	0.367296	13956.099609
1330.695214	0.085675	0.367296	14035.348633
1330.696167	0.085682	0.367296	14117.003906
1330.697098	0.085715	0.367296	14196.804687
1330.697987	0.085734	0.367296	14273.021484
1330.698935	0.085704	0.367296	14354.269531
1330.699885	0.085759	0.367296	14435.741211
1331.744875	1.089426	0.367215	494.599518
1331.745784	1.549893	0.367215	1903.451782
1331.746681	1.542810	0.367215	3287.352539
1331.747626	1.503501	0.367215	4708.161133
1331.748592	1.462815	0.367215	6121.240234
1331.749518	1.424616	0.367215	7440.434082
1331.750422	1.388306	0.367215	8695.462891
1331.751388	1.351956	0.367215	10001.452148
1331.752351	1.317235	0.367215	11269.949219
1331.753262	1.284305	0.367215	12439.951172
1331.754189	1.154147	0.367215	13509.845703
1331.755169	0.176470	0.367215	13682.786133
1331.756100	0.085584	0.367215	13762.464844
1331.756988	0.085624	0.367215	13838.499023
1331.757947	0.085598	0.367215	13920.587891
1331.758899	0.085675	0.367215	14002.150391
1331.759807	0.085686	0.367215	14079.953125
1331.760732	0.085624	0.367215	14159.155273
1331.761656	0.085686	0.367215	14238.329102
1331.762614	0.085682	0.367215	14320.413086
1331.763518	0.085723	0.367215	14397.906250
1332.771047	1.094487	0.366667	507.842102
1332.771943	1.549610	0.366667	1896.293213
1332.772927	1.539862	0.366667	3411.517578
1332.773862	1.500535	0.366667	4814.517578
1332.774776	1.461522	0.366667	6150.348633
1332.775670	1.424132	0.366667	7423.522461
1332.776659	1.385775	0.366667	8794.054687
1332.777577	1.351263	0.366667	10034.514648
1332.778474	1.318850	0.366667	11217.523437
1332.779434	1.285129	0.366667	12451.248047
1332.780367	1.162716	0.366667	13536.062500
1332.781271	0.198226	0.366667	13715.258789
1332.782158	0.085660	0.366667	13791.239258
1332.783138	0.085668	0.366667	13875.193359
1332.784033	0.085770	0.366667	13951.958008
1332.784932	0.085723	0.366667	14029.022461
1332.785847	0.085833	0.366667	14107.559570
1332.786812	0.085807	0.366667	14190.363281
1332.787724	0.085708	0.366667	14268.529297
1332.788618	0.085737	0.366667	14345.178711
1332.789590	0.085803	0.366667	14428.579102
